#isoforms=['chrX:48367812-48368095:+@chrX:48368281-48368344:+.A.withRI','chrX:48367812-48368095:+@chrX:48368281-48368344:+.B.up_chrX:48367812-48368095:+@chrX:48368281-48368344:+.B.dn']	exon_lens=('chrX:48367812-48368095:+@chrX:48368281-48368344:+.A.withRI',533),('chrX:48367812-48368095:+@chrX:48368281-48368344:+.B.up',284),('chrX:48367812-48368095:+@chrX:48368281-48368344:+.B.dn',64)	iters=5000	burn_in=500	lag=10	percent_accept=98.15	proposal_type=drift	counts=(0,0):17,(1,0):18,(1,1):16	assigned_counts=0:31,1:3	chrom=chrX	strand=+	mRNA_starts=48367812,48367812	mRNA_ends=48368344,48368344
sampled_psi	log_score
0.9327,0.0673	-24.06
0.6661,0.3339	-27.57
0.8684,0.1316	-24.69
0.8238,0.1762	-25.21
0.7568,0.2432	-26.10
0.8902,0.1098	-24.47
0.9413,0.0587	-23.99
0.6216,0.3784	-28.43
0.8750,0.1250	-24.62
0.8855,0.1145	-24.52
0.8184,0.1816	-25.27
0.8811,0.1189	-24.56
0.9385,0.0615	-24.01
0.6386,0.3614	-28.09
0.8278,0.1722	-25.16
0.9003,0.0997	-24.37
0.8140,0.1860	-25.33
0.8712,0.1288	-24.67
0.9296,0.0704	-24.09
0.5794,0.4206	-29.33
0.8399,0.1601	-25.01
0.8813,0.1187	-24.56
0.8113,0.1887	-25.36
0.8639,0.1361	-24.74
0.9250,0.0750	-24.13
0.6112,0.3888	-28.64
0.8577,0.1423	-24.81
0.8782,0.1218	-24.59
0.8035,0.1965	-25.46
0.8725,0.1275	-24.65
0.9107,0.0893	-24.27
0.6298,0.3702	-28.26
0.8559,0.1441	-24.83
0.8928,0.1072	-24.44
0.8177,0.1823	-25.28
0.9139,0.0861	-24.24
0.9063,0.0937	-24.31
0.6676,0.3324	-27.55
0.8499,0.1501	-24.90
0.9092,0.0908	-24.28
0.7901,0.2099	-25.63
0.9148,0.0852	-24.23
0.8834,0.1166	-24.54
0.6786,0.3214	-27.35
0.7907,0.2093	-25.63
0.9220,0.0780	-24.16
0.7993,0.2007	-25.51
0.9158,0.0842	-24.22
0.8727,0.1273	-24.65
0.6811,0.3189	-27.30
0.7818,0.2182	-25.75
0.9140,0.0860	-24.23
0.7850,0.2150	-25.70
0.9077,0.0923	-24.29
0.8882,0.1118	-24.49
0.6674,0.3326	-27.55
0.8027,0.1973	-25.47
0.9168,0.0832	-24.21
0.7672,0.2328	-25.95
0.9274,0.0726	-24.11
0.8818,0.1182	-24.55
0.6425,0.3575	-28.01
0.7718,0.2282	-25.88
0.9177,0.0823	-24.20
0.7717,0.2283	-25.89
0.9273,0.0727	-24.11
0.8844,0.1156	-24.53
0.6217,0.3783	-28.43
0.7455,0.2545	-26.26
0.9271,0.0729	-24.11
0.7627,0.2373	-26.01
0.9324,0.0676	-24.06
0.8936,0.1064	-24.43
0.6558,0.3442	-27.76
0.7920,0.2080	-25.61
0.9120,0.0880	-24.25
0.7826,0.2174	-25.74
0.9298,0.0702	-24.09
0.8920,0.1080	-24.45
0.6050,0.3950	-28.77
0.8083,0.1917	-25.40
0.8950,0.1050	-24.42
0.7701,0.2299	-25.91
0.9407,0.0593	-23.99
0.8847,0.1153	-24.52
0.6342,0.3658	-28.18
0.8190,0.1810	-25.26
0.9119,0.0881	-24.25
0.7838,0.2162	-25.72
0.9363,0.0637	-24.03
0.8636,0.1364	-24.75
0.6424,0.3576	-28.02
0.8139,0.1861	-25.33
0.9233,0.0767	-24.15
0.7746,0.2254	-25.85
0.9315,0.0685	-24.07
0.8564,0.1436	-24.83
0.6117,0.3883	-28.63
0.7641,0.2359	-25.99
0.9381,0.0619	-24.02
0.8314,0.1686	-25.12
0.9354,0.0646	-24.04
0.8353,0.1647	-25.07
0.5973,0.4027	-28.94
0.7529,0.2471	-26.15
0.9321,0.0679	-24.07
0.8298,0.1702	-25.13
0.9398,0.0602	-24.00
0.8308,0.1692	-25.12
0.5983,0.4017	-28.91
0.7220,0.2780	-26.62
0.9448,0.0552	-23.96
0.8334,0.1666	-25.09
0.9376,0.0624	-24.02
0.8186,0.1814	-25.27
0.6407,0.3593	-28.05
0.7488,0.2512	-26.21
0.9446,0.0554	-23.96
0.8603,0.1397	-24.78
0.9236,0.0764	-24.15
0.8015,0.1985	-25.49
0.6620,0.3380	-27.65
0.7737,0.2263	-25.86
0.9431,0.0569	-23.97
0.8492,0.1508	-24.91
0.9211,0.0789	-24.17
0.7822,0.2178	-25.74
0.6763,0.3237	-27.39
0.7672,0.2328	-25.95
0.9465,0.0535	-23.94
0.8517,0.1483	-24.88
0.9035,0.0965	-24.34
0.7637,0.2363	-26.00
0.6639,0.3361	-27.61
0.7423,0.2577	-26.31
0.9368,0.0632	-24.03
0.8488,0.1512	-24.91
0.9137,0.0863	-24.24
0.7483,0.2517	-26.22
0.6521,0.3479	-27.83
0.7298,0.2702	-26.50
0.9420,0.0580	-23.98
0.8306,0.1694	-25.12
0.9179,0.0821	-24.20
0.7687,0.2313	-25.93
0.6495,0.3505	-27.88
0.7326,0.2674	-26.46
0.9446,0.0554	-23.96
0.8506,0.1494	-24.89
0.9130,0.0870	-24.24
0.8347,0.1653	-25.08
0.6973,0.3027	-27.03
0.6540,0.3460	-27.79
0.9381,0.0619	-24.02
0.8784,0.1216	-24.59
0.9207,0.0793	-24.17
0.8364,0.1636	-25.06
0.7255,0.2745	-26.57
0.6539,0.3461	-27.80
0.9414,0.0586	-23.99
0.8777,0.1223	-24.60
0.9256,0.0744	-24.13
0.8365,0.1635	-25.05
0.7222,0.2778	-26.62
0.6300,0.3700	-28.26
0.9509,0.0491	-23.90
0.8927,0.1073	-24.44
0.9083,0.0917	-24.29
0.8071,0.1929	-25.41
0.7024,0.2976	-26.94
0.6877,0.3123	-27.19
0.9410,0.0590	-23.99
0.8967,0.1033	-24.40
0.9018,0.0982	-24.35
0.8045,0.1955	-25.45
0.7004,0.2996	-26.97
0.7487,0.2513	-26.22
0.9343,0.0657	-24.05
0.8840,0.1160	-24.53
0.9079,0.0921	-24.29
0.7868,0.2132	-25.68
0.7199,0.2801	-26.66
0.8045,0.1955	-25.45
0.9516,0.0484	-23.90
0.8967,0.1033	-24.40
0.9052,0.0948	-24.32
0.8059,0.1941	-25.43
0.7023,0.2977	-26.94
0.8182,0.1818	-25.27
0.9634,0.0366	-23.80
0.8925,0.1075	-24.44
0.9126,0.0874	-24.25
0.8197,0.1803	-25.26
0.7236,0.2764	-26.60
0.8510,0.1490	-24.89
0.9582,0.0418	-23.84
0.9050,0.0950	-24.32
0.9220,0.0780	-24.16
0.8291,0.1709	-25.14
0.7112,0.2888	-26.80
0.8418,0.1582	-24.99
0.9503,0.0497	-23.91
0.8935,0.1065	-24.43
0.9149,0.0851	-24.23
0.8024,0.1976	-25.47
0.7392,0.2608	-26.36
0.8785,0.1215	-24.59
0.9568,0.0432	-23.85
0.9086,0.0914	-24.29
0.8954,0.1046	-24.42
0.8401,0.1599	-25.01
0.7709,0.2291	-25.90
0.8673,0.1327	-24.71
0.9622,0.0378	-23.81
0.9023,0.0977	-24.35
0.8579,0.1421	-24.81
0.8346,0.1654	-25.08
0.7743,0.2257	-25.85
0.8746,0.1254	-24.63
0.9604,0.0396	-23.83
0.8972,0.1028	-24.40
0.8354,0.1646	-25.07
0.7813,0.2187	-25.75
0.7641,0.2359	-25.99
0.8844,0.1156	-24.53
0.9613,0.0387	-23.82
0.8697,0.1303	-24.68
0.8720,0.1280	-24.66
0.7783,0.2217	-25.79
0.7381,0.2619	-26.37
0.8731,0.1269	-24.64
0.9622,0.0378	-23.81
0.8892,0.1108	-24.48
0.8689,0.1311	-24.69
0.7522,0.2478	-26.16
0.7472,0.2528	-26.24
0.8598,0.1402	-24.79
0.9633,0.0367	-23.80
0.8635,0.1365	-24.75
0.8426,0.1574	-24.98
0.7339,0.2661	-26.44
0.7826,0.2174	-25.74
0.8689,0.1311	-24.69
0.9666,0.0334	-23.78
0.8818,0.1182	-24.55
0.8639,0.1361	-24.74
0.7530,0.2470	-26.15
0.7650,0.2350	-25.98
0.8888,0.1112	-24.48
0.9545,0.0455	-23.87
0.8726,0.1274	-24.65
0.8730,0.1270	-24.65
0.7557,0.2443	-26.11
0.7823,0.2177	-25.74
0.8611,0.1389	-24.77
0.9482,0.0518	-23.93
0.8537,0.1463	-24.86
0.8788,0.1212	-24.58
0.7663,0.2337	-25.96
0.8169,0.1831	-25.29
0.8575,0.1425	-24.81
0.9424,0.0576	-23.98
0.8135,0.1865	-25.33
0.8925,0.1075	-24.44
0.7626,0.2374	-26.01
0.8026,0.1974	-25.47
0.9023,0.0977	-24.35
0.9503,0.0497	-23.91
0.7593,0.2407	-26.06
0.9051,0.0949	-24.32
0.7033,0.2967	-26.93
0.8271,0.1729	-25.17
0.9070,0.0930	-24.30
0.9508,0.0492	-23.91
0.7598,0.2402	-26.05
0.9013,0.0987	-24.36
0.7215,0.2785	-26.63
0.8563,0.1437	-24.83
0.9273,0.0727	-24.11
0.9491,0.0509	-23.92
0.7491,0.2509	-26.21
0.9182,0.0818	-24.20
0.7329,0.2671	-26.45
0.8762,0.1238	-24.61
0.9100,0.0900	-24.27
0.9500,0.0500	-23.91
0.7295,0.2705	-26.51
0.9403,0.0597	-24.00
0.7467,0.2533	-26.25
0.8876,0.1124	-24.49
0.9338,0.0662	-24.05
0.9518,0.0482	-23.90
0.7494,0.2506	-26.21
0.9529,0.0471	-23.89
0.7663,0.2337	-25.96
0.8895,0.1105	-24.47
0.9329,0.0671	-24.06
0.9538,0.0462	-23.88
0.7991,0.2009	-25.52
0.9473,0.0527	-23.94
0.7809,0.2191	-25.76
0.8489,0.1511	-24.91
0.9370,0.0630	-24.02
0.9556,0.0444	-23.87
0.7804,0.2196	-25.77
0.9548,0.0452	-23.87
0.8017,0.1983	-25.48
0.8230,0.1770	-25.22
0.9435,0.0565	-23.97
0.9534,0.0466	-23.88
0.7231,0.2769	-26.61
0.9513,0.0487	-23.90
0.8045,0.1955	-25.45
0.7989,0.2011	-25.52
0.9298,0.0702	-24.09
0.9612,0.0388	-23.82
0.7468,0.2532	-26.24
0.9532,0.0468	-23.89
0.8209,0.1791	-25.24
0.8466,0.1534	-24.94
0.9555,0.0445	-23.87
0.9653,0.0347	-23.79
0.7589,0.2411	-26.07
0.9437,0.0563	-23.97
0.8020,0.1980	-25.48
0.8468,0.1532	-24.94
0.9595,0.0405	-23.83
0.9589,0.0411	-23.84
0.7946,0.2054	-25.58
0.9298,0.0702	-24.09
0.8185,0.1815	-25.27
0.8739,0.1261	-24.64
0.9535,0.0465	-23.88
0.9485,0.0515	-23.92
0.7747,0.2253	-25.84
0.9149,0.0851	-24.23
0.8073,0.1927	-25.41
0.8971,0.1029	-24.40
0.9378,0.0622	-24.02
0.9383,0.0617	-24.01
0.7734,0.2266	-25.86
0.9143,0.0857	-24.23
0.8072,0.1928	-25.41
0.8992,0.1008	-24.38
0.9322,0.0678	-24.07
0.9357,0.0643	-24.04
0.8004,0.1996	-25.50
0.8947,0.1053	-24.42
0.8350,0.1650	-25.07
0.9009,0.0991	-24.36
0.9242,0.0758	-24.14
0.9474,0.0526	-23.93
0.8004,0.1996	-25.50
0.8991,0.1009	-24.38
0.8458,0.1542	-24.95
0.9138,0.0862	-24.24
0.9206,0.0794	-24.17
0.9531,0.0469	-23.89
0.7883,0.2117	-25.66
0.8935,0.1065	-24.43
0.8345,0.1655	-25.08
0.9060,0.0940	-24.31
0.9184,0.0816	-24.19
0.9449,0.0551	-23.96
0.7436,0.2564	-26.29
0.8976,0.1024	-24.39
0.8336,0.1664	-25.09
0.9225,0.0775	-24.15
0.9249,0.0751	-24.13
0.9486,0.0514	-23.92
0.7467,0.2533	-26.24
0.9073,0.0927	-24.30
0.7957,0.2043	-25.56
0.9339,0.0661	-24.05
0.9317,0.0683	-24.07
0.9487,0.0513	-23.92
0.6773,0.3227	-27.37
0.9015,0.0985	-24.36
0.8054,0.1946	-25.44
0.9319,0.0681	-24.07
0.9151,0.0849	-24.22
0.9533,0.0467	-23.88
0.6941,0.3059	-27.08
0.8979,0.1021	-24.39
0.7863,0.2137	-25.69
0.9179,0.0821	-24.20
0.9195,0.0805	-24.18
0.9556,0.0444	-23.87
0.6455,0.3545	-27.96
0.9017,0.0983	-24.35
0.7728,0.2272	-25.87
0.9325,0.0675	-24.06
0.9373,0.0627	-24.02
0.9627,0.0373	-23.81
0.6885,0.3115	-27.18
0.8846,0.1154	-24.52
0.8216,0.1784	-25.23
0.9379,0.0621	-24.02
0.9261,0.0739	-24.12
0.9578,0.0422	-23.85
0.6533,0.3467	-27.81
0.8963,0.1037	-24.41
0.8039,0.1961	-25.45
0.9373,0.0627	-24.02
0.9276,0.0724	-24.11
0.9580,0.0420	-23.85
0.6145,0.3855	-28.57
0.8981,0.1019	-24.39
0.8280,0.1720	-25.16
0.9286,0.0714	-24.10
0.9104,0.0896	-24.27
0.9526,0.0474	-23.89
0.6107,0.3893	-28.65
0.9145,0.0855	-24.23
0.8744,0.1256	-24.63
0.9442,0.0558	-23.96
0.9020,0.0980	-24.35
0.9481,0.0519	-23.93
0.6572,0.3428	-27.74
0.9264,0.0736	-24.12
0.8783,0.1217	-24.59
0.9519,0.0481	-23.90
0.9040,0.0960	-24.33
0.9506,0.0494	-23.91
0.6736,0.3264	-27.44
0.9134,0.0866	-24.24
0.8607,0.1393	-24.78
0.9418,0.0582	-23.98
0.9017,0.0983	-24.35
0.9501,0.0499	-23.91
0.7174,0.2826	-26.70
0.9161,0.0839	-24.21
0.8730,0.1270	-24.65
0.9499,0.0501	-23.91
0.8874,0.1126	-24.50
0.9497,0.0503	-23.91
0.7027,0.2973	-26.94
0.9227,0.0773	-24.15
0.9062,0.0938	-24.31
0.9428,0.0572	-23.97
0.8897,0.1103	-24.47
0.9567,0.0433	-23.86
0.7019,0.2981	-26.95
0.8974,0.1026	-24.39
0.9159,0.0841	-24.22
0.9409,0.0591	-23.99
0.8775,0.1225	-24.60
0.9648,0.0352	-23.79
0.7300,0.2700	-26.50
0.9185,0.0815	-24.19
0.9291,0.0709	-24.10
0.9418,0.0582	-23.98
0.8856,0.1144	-24.51
0.9652,0.0348	-23.79
0.7296,0.2704	-26.50
0.9423,0.0577	-23.98
0.9348,0.0652	-24.04
0.9255,0.0745	-24.13
0.8891,0.1109	-24.48
0.9672,0.0328	-23.77
0.7584,0.2416	-26.07
0.9399,0.0601	-24.00
0.9470,0.0530	-23.94
0.9293,0.0707	-24.09
0.9061,0.0939	-24.31
0.9630,0.0370	-23.80
0.7248,0.2752	-26.58
0.9568,0.0432	-23.85
0.9375,0.0625	-24.02
0.9219,0.0781	-24.16
0.9026,0.0974	-24.34
0.9595,0.0405	-23.83
0.7376,0.2624	-26.38
0.9519,0.0481	-23.90
0.9383,0.0617	-24.01
0.9298,0.0702	-24.09
0.9272,0.0728	-24.11
0.9609,0.0391	-23.82
0.7665,0.2335	-25.96
0.9583,0.0417	-23.84
0.9193,0.0807	-24.18
0.8957,0.1043	-24.41
0.9402,0.0598	-24.00
0.9607,0.0393	-23.82
0.7662,0.2338	-25.96
0.9678,0.0322	-23.77
0.9193,0.0807	-24.18
0.8939,0.1061	-24.43
0.9455,0.0545	-23.95
0.9546,0.0454	-23.87
0.8194,0.1806	-25.26
0.9623,0.0377	-23.81
0.9324,0.0676	-24.07
0.9139,0.0861	-24.24
0.9550,0.0450	-23.87
0.9471,0.0529	-23.94
0.8566,0.1434	-24.82
0.9639,0.0361	-23.80
0.9458,0.0542	-23.95
0.9181,0.0819	-24.20
0.9640,0.0360	-23.80
0.9457,0.0543	-23.95
0.8328,0.1672	-25.10
0.9686,0.0314	-23.76
0.9451,0.0549	-23.95
0.9408,0.0592	-23.99
0.9500,0.0500	-23.91
0.9452,0.0548	-23.95
0.8477,0.1523	-24.92
0.9735,0.0265	-23.72
0.9585,0.0415	-23.84
0.9560,0.0440	-23.86
0.9439,0.0561	-23.96
0.9542,0.0458	-23.88
0.8468,0.1532	-24.94
0.9690,0.0310	-23.76
0.9632,0.0368	-23.80
0.9543,0.0457	-23.88
0.9401,0.0599	-24.00
0.9605,0.0395	-23.82
0.8611,0.1389	-24.77
0.9688,0.0312	-23.76
0.9553,0.0447	-23.87
0.9548,0.0452	-23.87
0.9256,0.0744	-24.13
0.9640,0.0360	-23.80
0.8363,0.1637	-25.06
0.9632,0.0368	-23.80
0.9505,0.0495	-23.91
0.9569,0.0431	-23.85
0.9359,0.0641	-24.03
0.9619,0.0381	-23.81
0.8799,0.1201	-24.57
0.9666,0.0334	-23.78
0.9540,0.0460	-23.88
0.9572,0.0428	-23.85
0.9474,0.0526	-23.93
0.9659,0.0341	-23.78
0.8748,0.1252	-24.63
0.9714,0.0286	-23.74
0.9638,0.0362	-23.80
0.9481,0.0519	-23.93
0.9527,0.0473	-23.89
0.9532,0.0468	-23.89
0.8855,0.1145	-24.51
0.9687,0.0313	-23.76
0.9661,0.0339	-23.78
0.9506,0.0494	-23.91
0.9547,0.0453	-23.87
0.9593,0.0407	-23.83
0.9057,0.0943	-24.31
0.9648,0.0352	-23.79
0.9571,0.0429	-23.85
0.9529,0.0471	-23.89
0.9623,0.0377	-23.81
0.9632,0.0368	-23.80
0.9159,0.0841	-24.22
0.9577,0.0423	-23.85
0.9477,0.0523	-23.93
0.9413,0.0587	-23.99
0.9649,0.0351	-23.79
0.9634,0.0366	-23.80
0.9118,0.0882	-24.25
0.9608,0.0392	-23.82
0.9508,0.0492	-23.91
0.9647,0.0353	-23.79
0.9681,0.0319	-23.76
0.9697,0.0303	-23.75
0.9033,0.0967	-24.34
0.9584,0.0416	-23.84
0.9549,0.0451	-23.87
0.9651,0.0349	-23.79
0.9626,0.0374	-23.81
0.9686,0.0314	-23.76
0.8997,0.1003	-24.37
0.9570,0.0430	-23.85
0.9604,0.0396	-23.83
0.9690,0.0310	-23.76
0.9586,0.0414	-23.84
0.9695,0.0305	-23.75
0.8626,0.1374	-24.76
0.9499,0.0501	-23.91
0.9593,0.0407	-23.84
0.9664,0.0336	-23.78
0.9532,0.0468	-23.89
0.9721,0.0279	-23.73
0.8392,0.1608	-25.02
0.9541,0.0459	-23.88
0.9638,0.0362	-23.80
0.9687,0.0313	-23.76
0.9470,0.0530	-23.94
0.9721,0.0279	-23.73
0.8695,0.1305	-24.68
0.9528,0.0472	-23.89
0.9579,0.0421	-23.85
0.9707,0.0293	-23.74
0.9585,0.0415	-23.84
0.9697,0.0303	-23.75
0.8662,0.1338	-24.72
0.9552,0.0448	-23.87
0.9663,0.0337	-23.78
0.9636,0.0364	-23.80
0.9631,0.0369	-23.80
0.9627,0.0373	-23.81
0.8674,0.1326	-24.71
0.9661,0.0339	-23.78
0.9743,0.0257	-23.71
0.9572,0.0428	-23.85
0.9684,0.0316	-23.76
0.9659,0.0341	-23.78
0.8673,0.1327	-24.71
0.9683,0.0317	-23.76
0.9658,0.0342	-23.78
0.9685,0.0315	-23.76
0.9725,0.0275	-23.73
0.9674,0.0326	-23.77
0.8796,0.1204	-24.58
0.9759,0.0241	-23.70
0.9650,0.0350	-23.79
0.9580,0.0420	-23.85
0.9688,0.0312	-23.76
0.9711,0.0289	-23.74
0.8718,0.1282	-24.66
0.9725,0.0275	-23.73
0.9721,0.0279	-23.73
0.9653,0.0347	-23.79
0.9783,0.0217	-23.68
0.9714,0.0286	-23.74
0.8592,0.1408	-24.80
0.9729,0.0271	-23.73
0.9697,0.0303	-23.75
0.9587,0.0413	-23.84
0.9819,0.0181	-23.66
0.9727,0.0273	-23.73
0.8382,0.1618	-25.03
0.9768,0.0232	-23.69
0.9730,0.0270	-23.72
0.9677,0.0323	-23.77
0.9850,0.0150	-23.63
0.9705,0.0295	-23.74
0.8338,0.1662	-25.09
0.9776,0.0224	-23.69
0.9746,0.0254	-23.71
0.9658,0.0342	-23.78
0.9838,0.0162	-23.64
0.9686,0.0314	-23.76
0.8014,0.1986	-25.49
0.9733,0.0267	-23.72
0.9756,0.0244	-23.70
0.9720,0.0280	-23.73
0.9824,0.0176	-23.65
0.9655,0.0345	-23.78
0.7951,0.2049	-25.57
0.9623,0.0377	-23.81
0.9791,0.0209	-23.68
0.9724,0.0276	-23.73
0.9808,0.0192	-23.66
0.9602,0.0398	-23.83
0.8027,0.1973	-25.47
0.9600,0.0400	-23.83
0.9790,0.0210	-23.68
0.9775,0.0225	-23.69
0.9777,0.0223	-23.69
0.9684,0.0316	-23.76
0.7444,0.2556	-26.28
0.9557,0.0443	-23.86
0.9770,0.0230	-23.69
0.9809,0.0191	-23.66
0.9782,0.0218	-23.68
0.9635,0.0365	-23.80
0.7009,0.2991	-26.97
0.9627,0.0373	-23.81
0.9770,0.0230	-23.69
0.9836,0.0164	-23.64
0.9751,0.0249	-23.71
0.9675,0.0325	-23.77
0.7419,0.2581	-26.32
0.9675,0.0325	-23.77
0.9783,0.0217	-23.68
0.9853,0.0147	-23.63
0.9778,0.0222	-23.69
0.9728,0.0272	-23.73
0.7362,0.2638	-26.40
0.9650,0.0350	-23.79
0.9775,0.0225	-23.69
0.9832,0.0168	-23.65
0.9761,0.0239	-23.70
0.9755,0.0245	-23.71
0.7348,0.2652	-26.42
0.9613,0.0387	-23.82
0.9740,0.0260	-23.72
0.9800,0.0200	-23.67
0.9725,0.0275	-23.73
0.9757,0.0243	-23.70
0.6728,0.3272	-27.45
0.9701,0.0299	-23.75
0.9748,0.0252	-23.71
0.9790,0.0210	-23.68
0.9721,0.0279	-23.73
0.9732,0.0268	-23.72
0.7363,0.2637	-26.40
0.9665,0.0335	-23.78
0.9768,0.0232	-23.70
0.9782,0.0218	-23.68
0.9744,0.0256	-23.71
0.9714,0.0286	-23.74
0.6921,0.3079	-27.11
0.9765,0.0235	-23.70
0.9794,0.0206	-23.67
0.9793,0.0207	-23.68
0.9718,0.0282	-23.73
0.9690,0.0310	-23.76
0.6910,0.3090	-27.13
0.9794,0.0206	-23.67
0.9765,0.0235	-23.70
0.9819,0.0181	-23.66
0.9723,0.0277	-23.73
0.9641,0.0359	-23.80
0.7332,0.2668	-26.45
0.9818,0.0182	-23.66
0.9770,0.0230	-23.69
0.9809,0.0191	-23.66
0.9656,0.0344	-23.78
0.9615,0.0385	-23.82
0.7041,0.2959	-26.91
0.9819,0.0181	-23.66
0.9758,0.0242	-23.70
0.9800,0.0200	-23.67
0.9702,0.0298	-23.75
0.9662,0.0338	-23.78
0.7007,0.2993	-26.97
0.9798,0.0202	-23.67
0.9680,0.0320	-23.76
0.9783,0.0217	-23.68
0.9735,0.0265	-23.72
0.9734,0.0266	-23.72
0.7067,0.2933	-26.87
0.9805,0.0195	-23.67
0.9665,0.0335	-23.78
0.9780,0.0220	-23.69
0.9774,0.0226	-23.69
0.9764,0.0236	-23.70
0.6874,0.3126	-27.19
0.9812,0.0188	-23.66
0.9599,0.0401	-23.83
0.9729,0.0271	-23.73
0.9733,0.0267	-23.72
0.9787,0.0213	-23.68
0.6987,0.3013	-27.00
0.9832,0.0168	-23.65
0.9572,0.0428	-23.85
0.9764,0.0236	-23.70
0.9791,0.0209	-23.68
0.9830,0.0170	-23.65
0.6946,0.3054	-27.07
0.9815,0.0185	-23.66
0.9531,0.0469	-23.89
0.9753,0.0247	-23.71
0.9757,0.0243	-23.70
0.9830,0.0170	-23.65
0.7029,0.2971	-26.93
0.9816,0.0184	-23.66
0.9589,0.0411	-23.84
0.9784,0.0216	-23.68
0.9787,0.0213	-23.68
0.9820,0.0180	-23.66
0.6959,0.3041	-27.05
0.9809,0.0191	-23.66
0.9662,0.0338	-23.78
0.9825,0.0175	-23.65
0.9802,0.0198	-23.67
0.9812,0.0188	-23.66
0.6807,0.3193	-27.31
0.9807,0.0193	-23.66
0.9714,0.0286	-23.74
0.9806,0.0194	-23.67
0.9770,0.0230	-23.69
0.9838,0.0162	-23.64
0.7414,0.2586	-26.32
0.9804,0.0196	-23.67
0.9642,0.0358	-23.79
0.9749,0.0251	-23.71
0.9743,0.0257	-23.71
0.9822,0.0178	-23.65
0.7473,0.2527	-26.24
0.9777,0.0223	-23.69
0.9614,0.0386	-23.82
0.9705,0.0295	-23.74
0.9799,0.0201	-23.67
0.9771,0.0229	-23.69
0.7644,0.2356	-25.99
0.9799,0.0201	-23.67
0.9628,0.0372	-23.81
0.9711,0.0289	-23.74
0.9864,0.0136	-23.62
0.9796,0.0204	-23.67
0.7451,0.2549	-26.27
0.9791,0.0209	-23.68
0.9536,0.0464	-23.88
0.9608,0.0392	-23.82
0.9851,0.0149	-23.63
0.9797,0.0203	-23.67
0.7567,0.2433	-26.10
0.9859,0.0141	-23.63
0.9491,0.0509	-23.92
0.9627,0.0373	-23.81
0.9864,0.0136	-23.62
0.9818,0.0182	-23.66
0.7291,0.2709	-26.51
0.9858,0.0142	-23.63
0.9366,0.0634	-24.03
0.9675,0.0325	-23.77
0.9856,0.0144	-23.63
0.9810,0.0190	-23.66
0.7820,0.2180	-25.74
0.9855,0.0145	-23.63
0.9194,0.0806	-24.18
0.9711,0.0289	-23.74
0.9870,0.0130	-23.62
0.9808,0.0192	-23.66
0.7613,0.2387	-26.03
0.9848,0.0152	-23.63
0.9182,0.0818	-24.20
0.9778,0.0222	-23.69
0.9871,0.0129	-23.62
0.9760,0.0240	-23.70
0.7913,0.2087	-25.62
0.9850,0.0150	-23.63
0.9225,0.0775	-24.16
0.9820,0.0180	-23.65
0.9866,0.0134	-23.62
0.9783,0.0217	-23.68
0.7981,0.2019	-25.53
0.9797,0.0203	-23.67
0.9084,0.0916	-24.29
0.9831,0.0169	-23.65
0.9875,0.0125	-23.61
0.9733,0.0267	-23.72
0.8083,0.1917	-25.40
0.9790,0.0210	-23.68
0.9084,0.0916	-24.29
0.9851,0.0149	-23.63
0.9903,0.0097	-23.59
0.9794,0.0206	-23.67
0.8582,0.1418	-24.81
0.9770,0.0230	-23.69
0.9243,0.0757	-24.14
0.9829,0.0171	-23.65
0.9892,0.0108	-23.60
0.9842,0.0158	-23.64
0.8693,0.1307	-24.69
0.9785,0.0215	-23.68
0.9350,0.0650	-24.04
0.9833,0.0167	-23.64
0.9905,0.0095	-23.59
0.9861,0.0139	-23.62
0.8685,0.1315	-24.69
0.9832,0.0168	-23.65
0.9166,0.0834	-24.21
0.9792,0.0208	-23.68
0.9885,0.0115	-23.61
0.9857,0.0143	-23.63
0.8804,0.1196	-24.57
0.9862,0.0138	-23.62
0.9142,0.0858	-24.23
0.9794,0.0206	-23.67
0.9901,0.0099	-23.59
0.9847,0.0153	-23.63
0.8907,0.1093	-24.46
0.9861,0.0139	-23.62
0.8953,0.1047	-24.42
0.9795,0.0205	-23.67
0.9901,0.0099	-23.59
0.9820,0.0180	-23.66
0.9104,0.0896	-24.27
0.9893,0.0107	-23.60
0.9024,0.0976	-24.35
0.9859,0.0141	-23.63
0.9903,0.0097	-23.59
0.9815,0.0185	-23.66
0.9133,0.0867	-24.24
0.9884,0.0116	-23.61
0.8918,0.1082	-24.45
0.9832,0.0168	-23.65
0.9861,0.0139	-23.62
0.9812,0.0188	-23.66
0.8988,0.1012	-24.38
0.9919,0.0081	-23.58
0.8744,0.1256	-24.63
0.9861,0.0139	-23.62
0.9896,0.0104	-23.60
0.9793,0.0207	-23.68
0.9062,0.0938	-24.31
0.9922,0.0078	-23.58
0.8765,0.1235	-24.61
0.9864,0.0136	-23.62
0.9894,0.0106	-23.60
0.9813,0.0187	-23.66
0.8903,0.1097	-24.47
0.9891,0.0109	-23.60
0.8590,0.1410	-24.80
0.9831,0.0169	-23.65
0.9892,0.0108	-23.60
0.9836,0.0164	-23.64
0.8846,0.1154	-24.52
0.9918,0.0082	-23.58
0.8486,0.1514	-24.91
0.9790,0.0210	-23.68
0.9918,0.0082	-23.58
0.9863,0.0137	-23.62
0.9097,0.0903	-24.28
0.9919,0.0081	-23.58
0.8597,0.1403	-24.79
0.9767,0.0233	-23.70
0.9920,0.0080	-23.58
0.9890,0.0110	-23.60
0.9123,0.0877	-24.25
0.9915,0.0085	-23.58
0.8901,0.1099	-24.47
0.9766,0.0234	-23.70
0.9914,0.0086	-23.58
0.9870,0.0130	-23.62
0.9057,0.0943	-24.31
0.9929,0.0071	-23.57
0.8932,0.1068	-24.44
0.9736,0.0264	-23.72
0.9889,0.0111	-23.60
0.9859,0.0141	-23.63
0.9332,0.0668	-24.06
0.9939,0.0061	-23.57
0.8926,0.1074	-24.44
0.9735,0.0265	-23.72
0.9878,0.0122	-23.61
0.9843,0.0157	-23.64
0.9216,0.0784	-24.16
0.9927,0.0073	-23.57
0.8982,0.1018	-24.39
0.9765,0.0235	-23.70
0.9893,0.0107	-23.60
0.9864,0.0136	-23.62
0.9245,0.0755	-24.14
0.9928,0.0072	-23.57
0.8668,0.1332	-24.71
0.9747,0.0253	-23.71
0.9889,0.0111	-23.60
0.9851,0.0149	-23.63
0.9319,0.0681	-24.07
0.9948,0.0052	-23.56
0.8765,0.1235	-24.61
0.9758,0.0242	-23.70
0.9893,0.0107	-23.60
0.9880,0.0120	-23.61
0.9463,0.0537	-23.94
0.9954,0.0046	-23.56
0.8762,0.1238	-24.61
0.9740,0.0260	-23.72
0.9912,0.0088	-23.59
0.9886,0.0114	-23.61
0.9352,0.0648	-24.04
0.9952,0.0048	-23.56
0.9067,0.0933	-24.30
0.9757,0.0243	-23.70
0.9932,0.0068	-23.57
0.9886,0.0114	-23.61
0.9365,0.0635	-24.03
0.9955,0.0045	-23.55
0.9192,0.0808	-24.19
0.9687,0.0313	-23.76
0.9945,0.0055	-23.56
0.9896,0.0104	-23.60
0.9363,0.0637	-24.03
0.9958,0.0042	-23.55
0.9398,0.0602	-24.00
0.9729,0.0271	-23.73
0.9948,0.0052	-23.56
0.9876,0.0124	-23.61
0.9452,0.0548	-23.95
0.9943,0.0057	-23.56
0.9414,0.0586	-23.99
0.9699,0.0301	-23.75
0.9940,0.0060	-23.57
0.9828,0.0172	-23.65
0.9483,0.0517	-23.93
0.9939,0.0061	-23.57
0.9538,0.0462	-23.88
0.9673,0.0327	-23.77
0.9941,0.0059	-23.56
0.9865,0.0135	-23.62
0.9451,0.0549	-23.95
0.9944,0.0056	-23.56
0.9532,0.0468	-23.89
0.9600,0.0400	-23.83
0.9947,0.0053	-23.56
0.9850,0.0150	-23.63
0.9374,0.0626	-24.02
0.9948,0.0052	-23.56
0.9553,0.0447	-23.87
0.9634,0.0366	-23.80
0.9959,0.0041	-23.55
0.9864,0.0136	-23.62
0.9296,0.0704	-24.09
0.9959,0.0041	-23.55
0.9592,0.0408	-23.84
0.9600,0.0400	-23.83
0.9966,0.0034	-23.55
0.9841,0.0159	-23.64
0.9303,0.0697	-24.08
0.9960,0.0040	-23.55
0.9558,0.0442	-23.86
0.9459,0.0541	-23.95
0.9968,0.0032	-23.54
0.9848,0.0152	-23.63
0.9213,0.0787	-24.17
0.9948,0.0052	-23.56
0.9579,0.0421	-23.85
0.9287,0.0713	-24.10
0.9966,0.0034	-23.55
0.9810,0.0190	-23.66
0.9154,0.0846	-24.22
0.9940,0.0060	-23.57
0.9476,0.0524	-23.93
0.9343,0.0657	-24.05
0.9968,0.0032	-23.54
0.9773,0.0227	-23.69
0.9044,0.0956	-24.33
0.9922,0.0078	-23.58
0.9490,0.0510	-23.92
0.9472,0.0528	-23.94
0.9962,0.0038	-23.55
0.9800,0.0200	-23.67
0.9036,0.0964	-24.33
0.9927,0.0073	-23.58
0.9528,0.0472	-23.89
0.9585,0.0415	-23.84
0.9966,0.0034	-23.55
0.9750,0.0250	-23.71
0.8705,0.1295	-24.67
0.9921,0.0079	-23.58
0.9526,0.0474	-23.89
0.9485,0.0515	-23.92
0.9970,0.0030	-23.54
0.9774,0.0226	-23.69
0.8781,0.1219	-24.59
0.9908,0.0092	-23.59
0.9420,0.0580	-23.98
0.9606,0.0394	-23.82
0.9967,0.0033	-23.55
0.9808,0.0192	-23.66
0.8814,0.1186	-24.56
0.9863,0.0137	-23.62
0.9342,0.0658	-24.05
0.9620,0.0380	-23.81
0.9959,0.0041	-23.55
0.9790,0.0210	-23.68
0.8918,0.1082	-24.45
0.9861,0.0139	-23.62
0.9373,0.0627	-24.02
0.9650,0.0350	-23.79
0.9958,0.0042	-23.55
0.9843,0.0157	-23.64
0.8823,0.1177	-24.55
0.9867,0.0133	-23.62
0.9291,0.0709	-24.09
0.9568,0.0432	-23.86
0.9957,0.0043	-23.55
0.9869,0.0131	-23.62
0.8963,0.1037	-24.41
0.9812,0.0188	-23.66
0.9249,0.0751	-24.13
0.9667,0.0333	-23.77
0.9965,0.0035	-23.55
0.9862,0.0138	-23.62
0.9133,0.0867	-24.24
0.9811,0.0189	-23.66
0.9147,0.0853	-24.23
0.9663,0.0337	-23.78
0.9953,0.0047	-23.56
0.9885,0.0115	-23.61
0.9040,0.0960	-24.33
0.9757,0.0243	-23.70
0.9048,0.0952	-24.32
0.9566,0.0434	-23.86
0.9930,0.0070	-23.57
0.9883,0.0117	-23.61
0.8758,0.1242	-24.62
0.9805,0.0195	-23.67
0.9074,0.0926	-24.30
0.9602,0.0398	-23.83
0.9937,0.0063	-23.57
0.9871,0.0129	-23.62
0.8955,0.1045	-24.41
0.9813,0.0187	-23.66
0.9046,0.0954	-24.32
0.9568,0.0432	-23.86
0.9944,0.0056	-23.56
0.9885,0.0115	-23.61
0.8712,0.1288	-24.67
0.9822,0.0178	-23.65
0.9026,0.0974	-24.34
0.9533,0.0467	-23.88
0.9932,0.0068	-23.57
0.9884,0.0116	-23.61
0.8651,0.1349	-24.73
0.9846,0.0154	-23.64
0.9218,0.0782	-24.16
0.9458,0.0542	-23.95
0.9928,0.0072	-23.57
0.9887,0.0113	-23.60
0.8516,0.1484	-24.88
0.9836,0.0164	-23.64
0.9074,0.0926	-24.30
0.9558,0.0442	-23.86
0.9927,0.0073	-23.57
0.9900,0.0100	-23.59
0.8623,0.1377	-24.76
0.9837,0.0163	-23.64
0.8681,0.1319	-24.70
0.9486,0.0514	-23.92
0.9931,0.0069	-23.57
0.9886,0.0114	-23.61
0.8533,0.1467	-24.86
0.9826,0.0174	-23.65
0.8450,0.1550	-24.96
0.9394,0.0606	-24.00
0.9912,0.0088	-23.59
0.9889,0.0111	-23.60
0.8732,0.1268	-24.64
0.9844,0.0156	-23.64
0.8587,0.1413	-24.80
0.9430,0.0570	-23.97
0.9895,0.0105	-23.60
0.9897,0.0103	-23.60
0.8680,0.1320	-24.70
0.9845,0.0155	-23.64
0.8318,0.1682	-25.11
0.9539,0.0461	-23.88
0.9880,0.0120	-23.61
0.9905,0.0095	-23.59
0.8799,0.1201	-24.57
0.9841,0.0159	-23.64
0.7819,0.2181	-25.74
0.9458,0.0542	-23.95
0.9882,0.0118	-23.61
0.9912,0.0088	-23.59
0.8751,0.1249	-24.62
0.9813,0.0187	-23.66
0.8005,0.1995	-25.50
0.9303,0.0697	-24.08
0.9863,0.0137	-23.62
0.9924,0.0076	-23.58
0.9038,0.0962	-24.33
0.9803,0.0197	-23.67
0.8082,0.1918	-25.40
0.9314,0.0686	-24.07
0.9843,0.0157	-23.64
0.9918,0.0082	-23.58
0.9016,0.0984	-24.35
0.9823,0.0177	-23.65
0.8155,0.1845	-25.31
0.9282,0.0718	-24.10
0.9821,0.0179	-23.65
0.9912,0.0088	-23.59
0.9098,0.0902	-24.27
0.9812,0.0188	-23.66
0.8475,0.1525	-24.93
0.9338,0.0662	-24.05
0.9824,0.0176	-23.65
0.9915,0.0085	-23.58
0.8937,0.1063	-24.43
0.9841,0.0159	-23.64
0.8496,0.1504	-24.90
0.9383,0.0617	-24.01
0.9877,0.0123	-23.61
0.9902,0.0098	-23.59
0.9005,0.0995	-24.36
0.9843,0.0157	-23.64
0.8580,0.1420	-24.81
0.9112,0.0888	-24.26
0.9830,0.0170	-23.65
0.9905,0.0095	-23.59
0.9184,0.0816	-24.19
0.9832,0.0168	-23.65
0.8575,0.1425	-24.81
0.9091,0.0909	-24.28
0.9828,0.0172	-23.65
0.9910,0.0090	-23.59
0.9187,0.0813	-24.19
0.9858,0.0142	-23.63
0.8919,0.1081	-24.45
0.9173,0.0827	-24.20
0.9794,0.0206	-23.68
0.9914,0.0086	-23.58
0.9362,0.0638	-24.03
0.9823,0.0177	-23.65
0.8782,0.1218	-24.59
0.9242,0.0758	-24.14
0.9815,0.0185	-23.66
0.9891,0.0109	-23.60
0.9382,0.0618	-24.01
0.9837,0.0163	-23.64
0.8820,0.1180	-24.55
0.9245,0.0755	-24.14
0.9824,0.0176	-23.65
0.9905,0.0095	-23.59
0.9213,0.0787	-24.17
0.9864,0.0136	-23.62
0.8943,0.1057	-24.43
0.9348,0.0652	-24.04
0.9819,0.0181	-23.66
0.9893,0.0107	-23.60
0.9358,0.0642	-24.04
0.9837,0.0163	-23.64
0.8771,0.1229	-24.60
0.9369,0.0631	-24.03
0.9839,0.0161	-23.64
0.9910,0.0090	-23.59
0.9440,0.0560	-23.96
0.9872,0.0128	-23.62
0.8525,0.1475	-24.87
0.9273,0.0727	-24.11
0.9824,0.0176	-23.65
0.9910,0.0090	-23.59
0.9412,0.0588	-23.99
0.9884,0.0116	-23.61
0.8241,0.1759	-25.20
0.9141,0.0859	-24.23
0.9787,0.0213	-23.68
0.9907,0.0093	-23.59
0.9401,0.0599	-24.00
0.9882,0.0118	-23.61
0.8164,0.1836	-25.30
0.9155,0.0845	-24.22
0.9772,0.0228	-23.69
0.9907,0.0093	-23.59
0.9215,0.0785	-24.16
0.9865,0.0135	-23.62
0.7775,0.2225	-25.80
0.9279,0.0721	-24.11
0.9792,0.0208	-23.68
0.9895,0.0105	-23.60
0.9122,0.0878	-24.25
0.9885,0.0115	-23.61
0.7908,0.2092	-25.63
0.9315,0.0685	-24.07
0.9833,0.0167	-23.64
0.9909,0.0091	-23.59
0.9128,0.0872	-24.25
0.9907,0.0093	-23.59
0.7876,0.2124	-25.67
0.9214,0.0786	-24.17
0.9783,0.0217	-23.68
0.9920,0.0080	-23.58
0.9117,0.0883	-24.26
0.9894,0.0106	-23.60
0.7899,0.2101	-25.64
0.9293,0.0707	-24.09
0.9746,0.0254	-23.71
0.9919,0.0081	-23.58
0.9181,0.0819	-24.20
0.9885,0.0115	-23.61
0.8037,0.1963	-25.46
0.9220,0.0780	-24.16
0.9704,0.0296	-23.75
0.9929,0.0071	-23.57
0.9205,0.0795	-24.17
0.9884,0.0116	-23.61
0.8216,0.1784	-25.23
0.9099,0.0901	-24.27
0.9658,0.0342	-23.78
0.9940,0.0060	-23.57
0.9371,0.0629	-24.02
0.9896,0.0104	-23.60
0.7983,0.2017	-25.53
0.9126,0.0874	-24.25
0.9629,0.0371	-23.81
0.9940,0.0060	-23.57
0.9416,0.0584	-23.98
0.9872,0.0128	-23.62
0.8224,0.1776	-25.22
0.9138,0.0862	-24.24
0.9603,0.0397	-23.83
0.9934,0.0066	-23.57
0.9437,0.0563	-23.97
0.9873,0.0127	-23.61
0.8164,0.1836	-25.30
0.9318,0.0682	-24.07
0.9525,0.0475	-23.89
0.9914,0.0086	-23.58
0.9443,0.0557	-23.96
0.9855,0.0145	-23.63
0.7912,0.2088	-25.62
0.9379,0.0621	-24.02
0.9497,0.0503	-23.91
0.9928,0.0072	-23.57
0.9357,0.0643	-24.04
0.9841,0.0159	-23.64
0.7947,0.2053	-25.57
0.9348,0.0652	-24.04
0.9471,0.0529	-23.94
0.9905,0.0095	-23.59
0.9187,0.0813	-24.19
0.9838,0.0162	-23.64
0.8170,0.1830	-25.29
0.9409,0.0591	-23.99
0.9278,0.0722	-24.11
0.9919,0.0081	-23.58
0.9096,0.0904	-24.28
0.9821,0.0179	-23.65
0.8120,0.1880	-25.35
0.9261,0.0739	-24.12
0.9196,0.0804	-24.18
0.9922,0.0078	-23.58
0.9129,0.0871	-24.25
0.9838,0.0162	-23.64
0.7770,0.2230	-25.81
0.9212,0.0788	-24.17
0.9151,0.0849	-24.22
0.9922,0.0078	-23.58
0.9215,0.0785	-24.16
0.9786,0.0214	-23.68
0.8209,0.1791	-25.24
0.9320,0.0680	-24.07
0.9200,0.0800	-24.18
0.9906,0.0094	-23.59
0.9130,0.0870	-24.24
0.9795,0.0205	-23.67
0.7971,0.2029	-25.54
0.9253,0.0747	-24.13
0.9088,0.0912	-24.28
0.9892,0.0108	-23.60
0.9126,0.0874	-24.25
0.9850,0.0150	-23.63
0.7788,0.2212	-25.79
0.9185,0.0815	-24.19
0.9228,0.0772	-24.15
0.9849,0.0151	-23.63
0.9094,0.0906	-24.28
0.9856,0.0144	-23.63
0.7637,0.2363	-26.00
0.9043,0.0957	-24.33
0.9332,0.0668	-24.06
0.9862,0.0138	-23.62
0.9359,0.0641	-24.03
0.9875,0.0125	-23.61
0.7562,0.2438	-26.11
0.8862,0.1138	-24.51
0.9465,0.0535	-23.94
0.9818,0.0182	-23.66
0.9465,0.0535	-23.94
0.9893,0.0107	-23.60
0.7409,0.2591	-26.33
0.9038,0.0962	-24.33
0.9319,0.0681	-24.07
0.9807,0.0193	-23.66
0.9316,0.0684	-24.07
0.9895,0.0105	-23.60
0.7223,0.2777	-26.62
0.9198,0.0802	-24.18
0.9329,0.0671	-24.06
0.9812,0.0188	-23.66
0.9384,0.0616	-24.01
0.9873,0.0127	-23.61
0.6987,0.3013	-27.00
0.9282,0.0718	-24.10
0.9419,0.0581	-23.98
0.9827,0.0173	-23.65
0.9271,0.0729	-24.11
0.9863,0.0137	-23.62
0.7514,0.2486	-26.18
0.9373,0.0627	-24.02
0.9570,0.0430	-23.85
0.9816,0.0184	-23.66
0.9010,0.0990	-24.36
0.9856,0.0144	-23.63
0.7913,0.2087	-25.62
0.9375,0.0625	-24.02
0.9485,0.0515	-23.92
0.9805,0.0195	-23.67
0.8903,0.1097	-24.47
0.9861,0.0139	-23.62
0.7969,0.2031	-25.55
0.9377,0.0623	-24.02
0.9353,0.0647	-24.04
0.9816,0.0184	-23.66
0.8801,0.1199	-24.57
0.9865,0.0135	-23.62
0.7805,0.2195	-25.76
0.9462,0.0538	-23.94
0.9397,0.0603	-24.00
0.9794,0.0206	-23.68
0.8973,0.1027	-24.40
0.9875,0.0125	-23.61
0.7990,0.2010	-25.52
0.9582,0.0418	-23.84
0.9475,0.0525	-23.93
0.9732,0.0268	-23.72
0.9143,0.0857	-24.23
0.9880,0.0120	-23.61
0.8004,0.1996	-25.50
0.9653,0.0347	-23.79
0.9482,0.0518	-23.93
0.9735,0.0265	-23.72
0.9239,0.0761	-24.14
0.9896,0.0104	-23.60
0.7968,0.2032	-25.55
0.9503,0.0497	-23.91
0.9579,0.0421	-23.85
0.9720,0.0280	-23.73
0.9399,0.0601	-24.00
0.9886,0.0114	-23.61
0.8466,0.1534	-24.94
0.9494,0.0506	-23.92
0.9611,0.0389	-23.82
0.9694,0.0306	-23.75
0.9428,0.0572	-23.97
0.9877,0.0123	-23.61
0.8644,0.1356	-24.74
0.9514,0.0486	-23.90
0.9463,0.0537	-23.94
0.9683,0.0317	-23.76
0.9332,0.0668	-24.06
0.9896,0.0104	-23.60
0.8606,0.1394	-24.78
0.9465,0.0535	-23.94
0.9433,0.0567	-23.97
0.9657,0.0343	-23.78
0.9294,0.0706	-24.09
0.9877,0.0123	-23.61
0.8557,0.1443	-24.83
0.9458,0.0542	-23.95
0.9441,0.0559	-23.96
0.9677,0.0323	-23.77
0.9183,0.0817	-24.19
0.9880,0.0120	-23.61
0.8397,0.1603	-25.02
0.9585,0.0415	-23.84
0.9523,0.0477	-23.89
0.9706,0.0294	-23.74
0.9177,0.0823	-24.20
0.9869,0.0131	-23.62
0.8357,0.1643	-25.06
0.9617,0.0383	-23.82
0.9566,0.0434	-23.86
0.9676,0.0324	-23.77
0.9025,0.0975	-24.35
0.9812,0.0188	-23.66
0.8367,0.1633	-25.05
0.9631,0.0369	-23.80
0.9695,0.0305	-23.75
0.9650,0.0350	-23.79
0.8936,0.1064	-24.43
0.9774,0.0226	-23.69
0.8831,0.1169	-24.54
0.9660,0.0340	-23.78
0.9733,0.0267	-23.72
0.9529,0.0471	-23.89
0.8794,0.1206	-24.58
0.9784,0.0216	-23.68
0.8791,0.1209	-24.58
0.9702,0.0298	-23.75
0.9731,0.0269	-23.72
0.9580,0.0420	-23.85
0.9027,0.0973	-24.34
0.9782,0.0218	-23.68
0.8878,0.1122	-24.49
0.9770,0.0230	-23.69
0.9750,0.0250	-23.71
0.9635,0.0365	-23.80
0.9076,0.0924	-24.30
0.9778,0.0222	-23.69
0.8865,0.1135	-24.50
0.9802,0.0198	-23.67
0.9750,0.0250	-23.71
0.9572,0.0428	-23.85
0.8729,0.1271	-24.65
0.9790,0.0210	-23.68
0.8934,0.1066	-24.44
0.9702,0.0298	-23.75
0.9788,0.0212	-23.68
0.9510,0.0490	-23.90
0.8877,0.1123	-24.49
0.9784,0.0216	-23.68
0.8802,0.1198	-24.57
0.9680,0.0320	-23.76
0.9749,0.0251	-23.71
0.9504,0.0496	-23.91
0.9029,0.0971	-24.34
0.9794,0.0206	-23.67
0.8876,0.1124	-24.49
0.9716,0.0284	-23.74
0.9809,0.0191	-23.66
0.9351,0.0649	-24.04
0.8928,0.1072	-24.44
0.9736,0.0264	-23.72
0.8871,0.1129	-24.50
0.9698,0.0302	-23.75
0.9805,0.0195	-23.67
0.9393,0.0607	-24.00
0.8871,0.1129	-24.50
0.9731,0.0269	-23.72
0.8958,0.1042	-24.41
0.9586,0.0414	-23.84
0.9802,0.0198	-23.67
0.9326,0.0674	-24.06
0.8895,0.1105	-24.47
0.9715,0.0285	-23.74
0.8689,0.1311	-24.69
0.9469,0.0531	-23.94
0.9762,0.0238	-23.70
0.9408,0.0592	-23.99
0.8789,0.1211	-24.58
0.9745,0.0255	-23.71
0.8805,0.1195	-24.57
0.9551,0.0449	-23.87
0.9703,0.0297	-23.75
0.9459,0.0541	-23.95
0.8716,0.1284	-24.66
0.9746,0.0254	-23.71
0.8616,0.1384	-24.77
0.9458,0.0542	-23.95
0.9687,0.0313	-23.76
0.9366,0.0634	-24.03
0.8872,0.1128	-24.50
0.9755,0.0245	-23.70
0.8485,0.1515	-24.92
0.9452,0.0548	-23.95
0.9661,0.0339	-23.78
0.9305,0.0695	-24.08
0.9098,0.0902	-24.27
0.9716,0.0284	-23.74
0.8279,0.1721	-25.16
0.9257,0.0743	-24.13
0.9638,0.0362	-23.80
0.9392,0.0608	-24.01
0.9020,0.0980	-24.35
0.9748,0.0252	-23.71
0.8746,0.1254	-24.63
0.9086,0.0914	-24.29
0.9614,0.0386	-23.82
0.9465,0.0535	-23.94
0.8789,0.1211	-24.58
0.9712,0.0288	-23.74
0.8853,0.1147	-24.52
0.9115,0.0885	-24.26
0.9627,0.0373	-23.81
0.9464,0.0536	-23.94
0.8964,0.1036	-24.40
0.9708,0.0292	-23.74
0.8544,0.1456	-24.85
0.9193,0.0807	-24.18
0.9524,0.0476	-23.89
0.9523,0.0477	-23.89
0.8692,0.1308	-24.69
0.9613,0.0387	-23.82
0.8391,0.1609	-25.02
0.9226,0.0774	-24.15
0.9547,0.0453	-23.87
0.9608,0.0392	-23.82
0.8741,0.1259	-24.63
0.9620,0.0380	-23.81
0.8561,0.1439	-24.83
0.9209,0.0791	-24.17
0.9582,0.0418	-23.84
0.9605,0.0395	-23.82
0.8711,0.1289	-24.67
0.9640,0.0360	-23.80
0.8552,0.1448	-24.84
0.9175,0.0825	-24.20
0.9556,0.0444	-23.87
0.9690,0.0310	-23.76
0.8942,0.1058	-24.43
0.9680,0.0320	-23.76
0.8522,0.1478	-24.87
0.9202,0.0798	-24.18
0.9612,0.0388	-23.82
0.9656,0.0344	-23.78
0.9045,0.0955	-24.32
0.9656,0.0344	-23.78
0.8842,0.1158	-24.53
0.9005,0.0995	-24.36
0.9674,0.0326	-23.77
0.9624,0.0376	-23.81
0.9185,0.0815	-24.19
0.9553,0.0447	-23.87
0.8838,0.1162	-24.53
0.8988,0.1012	-24.38
0.9699,0.0301	-23.75
0.9684,0.0316	-23.76
0.9192,0.0808	-24.19
0.9595,0.0405	-23.83
0.8704,0.1296	-24.67
0.9102,0.0898	-24.27
0.9723,0.0277	-23.73
0.9617,0.0383	-23.82
0.9303,0.0697	-24.08
0.9507,0.0493	-23.91
0.8681,0.1319	-24.70
0.9194,0.0806	-24.18
0.9750,0.0250	-23.71
0.9615,0.0385	-23.82
0.9229,0.0771	-24.15
0.9339,0.0661	-24.05
0.8476,0.1524	-24.93
0.9211,0.0789	-24.17
0.9790,0.0210	-23.68
0.9572,0.0428	-23.85
0.9033,0.0967	-24.34
0.9458,0.0542	-23.95
0.8296,0.1704	-25.14
0.9050,0.0950	-24.32
0.9770,0.0230	-23.69
0.9539,0.0461	-23.88
0.9136,0.0864	-24.24
0.9529,0.0471	-23.89
0.8352,0.1648	-25.07
0.9096,0.0904	-24.28
0.9774,0.0226	-23.69
0.9616,0.0384	-23.82
0.9162,0.0838	-24.21
0.9532,0.0468	-23.89
0.8692,0.1308	-24.69
0.9109,0.0891	-24.26
0.9804,0.0196	-23.67
0.9603,0.0397	-23.83
0.9038,0.0962	-24.33
0.9647,0.0353	-23.79
0.8694,0.1306	-24.68
0.8819,0.1181	-24.55
0.9823,0.0177	-23.65
0.9668,0.0332	-23.77
0.8673,0.1327	-24.71
0.9616,0.0384	-23.82
0.8722,0.1278	-24.65
0.9175,0.0825	-24.20
0.9825,0.0175	-23.65
0.9698,0.0302	-23.75
0.8491,0.1509	-24.91
0.9532,0.0468	-23.89
0.8840,0.1160	-24.53
0.9275,0.0725	-24.11
0.9844,0.0156	-23.64
0.9750,0.0250	-23.71
0.8663,0.1337	-24.72
0.9548,0.0452	-23.87
0.8977,0.1023	-24.39
0.9198,0.0802	-24.18
0.9843,0.0157	-23.64
0.9722,0.0278	-23.73
0.8705,0.1295	-24.67
0.9631,0.0369	-23.80
0.8855,0.1145	-24.51
0.9018,0.0982	-24.35
0.9792,0.0208	-23.68
0.9720,0.0280	-23.73
0.8388,0.1612	-25.03
0.9573,0.0427	-23.85
0.8861,0.1139	-24.51
0.8994,0.1006	-24.38
0.9802,0.0198	-23.67
0.9740,0.0260	-23.72
0.8354,0.1646	-25.07
0.9609,0.0391	-23.82
0.9004,0.0996	-24.37
0.9124,0.0876	-24.25
0.9775,0.0225	-23.69
0.9677,0.0323	-23.77
0.8033,0.1967	-25.46
0.9544,0.0456	-23.88
0.9206,0.0794	-24.17
0.9248,0.0752	-24.13
0.9769,0.0231	-23.69
0.9640,0.0360	-23.80
0.8070,0.1930	-25.42
0.9570,0.0430	-23.85
0.9297,0.0703	-24.09
0.9374,0.0626	-24.02
0.9788,0.0212	-23.68
0.9519,0.0481	-23.90
0.8202,0.1798	-25.25
0.9638,0.0362	-23.80
0.9411,0.0589	-23.99
0.9464,0.0536	-23.94
0.9793,0.0207	-23.68
0.9381,0.0619	-24.01
0.8218,0.1782	-25.23
0.9733,0.0267	-23.72
0.9157,0.0843	-24.22
0.9547,0.0453	-23.87
0.9792,0.0208	-23.68
0.9453,0.0547	-23.95
0.7989,0.2011	-25.52
0.9648,0.0352	-23.79
0.9102,0.0898	-24.27
0.9555,0.0445	-23.87
0.9795,0.0205	-23.67
0.9363,0.0637	-24.03
0.8104,0.1896	-25.37
0.9663,0.0337	-23.78
0.9128,0.0872	-24.25
0.9549,0.0451	-23.87
0.9810,0.0190	-23.66
0.9466,0.0534	-23.94
0.7997,0.2003	-25.51
0.9710,0.0290	-23.74
0.9023,0.0977	-24.35
0.9493,0.0507	-23.92
0.9803,0.0197	-23.67
0.9467,0.0533	-23.94
0.7710,0.2290	-25.90
0.9609,0.0391	-23.82
0.8872,0.1128	-24.50
0.9464,0.0536	-23.94
0.9801,0.0199	-23.67
0.9515,0.0485	-23.90
0.7721,0.2279	-25.88
0.9589,0.0411	-23.84
0.8914,0.1086	-24.45
0.9336,0.0664	-24.05
0.9778,0.0222	-23.69
0.9433,0.0567	-23.97
0.7377,0.2623	-26.38
0.9493,0.0507	-23.92
0.8888,0.1112	-24.48
0.9265,0.0735	-24.12
0.9825,0.0175	-23.65
0.9411,0.0589	-23.99
0.7097,0.2903	-26.82
0.9532,0.0468	-23.89
0.8751,0.1249	-24.62
0.9330,0.0670	-24.06
0.9764,0.0236	-23.70
0.9368,0.0632	-24.03
0.7011,0.2989	-26.96
0.9499,0.0501	-23.91
0.8945,0.1055	-24.42
0.9563,0.0437	-23.86
0.9738,0.0262	-23.72
0.9269,0.0731	-24.12
0.7225,0.2775	-26.62
0.9416,0.0584	-23.98
0.8888,0.1112	-24.48
0.9580,0.0420	-23.85
0.9741,0.0259	-23.72
0.9150,0.0850	-24.23
0.7526,0.2474	-26.16
0.9301,0.0699	-24.09
0.8829,0.1171	-24.54
0.9656,0.0344	-23.78
0.9773,0.0227	-23.69
0.9203,0.0797	-24.18
0.7541,0.2459	-26.14
0.9275,0.0725	-24.11
0.8971,0.1029	-24.40
0.9695,0.0305	-23.75
0.9719,0.0281	-23.73
0.9124,0.0876	-24.25
0.8172,0.1828	-25.29
0.9311,0.0689	-24.08
0.8794,0.1206	-24.58
0.9738,0.0262	-23.72
0.9712,0.0288	-23.74
0.9218,0.0782	-24.16
0.8099,0.1901	-25.38
0.9166,0.0834	-24.21
0.8705,0.1295	-24.67
0.9791,0.0209	-23.68
0.9647,0.0353	-23.79
0.9113,0.0887	-24.26
0.8162,0.1838	-25.30
0.9422,0.0578	-23.98
0.8814,0.1186	-24.56
0.9757,0.0243	-23.70
0.9718,0.0282	-23.73
0.9224,0.0776	-24.16
0.7654,0.2346	-25.97
0.9457,0.0543	-23.95
0.8957,0.1043	-24.41
0.9771,0.0229	-23.69
0.9736,0.0264	-23.72
0.9215,0.0785	-24.16
0.7798,0.2202	-25.77
0.9529,0.0471	-23.89
0.8905,0.1095	-24.46
0.9725,0.0275	-23.73
0.9773,0.0227	-23.69
0.9262,0.0738	-24.12
0.8089,0.1911	-25.39
0.9640,0.0360	-23.80
0.8648,0.1352	-24.73
0.9750,0.0250	-23.71
0.9766,0.0234	-23.70
0.9368,0.0632	-24.03
0.7764,0.2236	-25.82
0.9476,0.0524	-23.93
0.8633,0.1367	-24.75
0.9736,0.0264	-23.72
0.9736,0.0264	-23.72
0.9508,0.0492	-23.91
0.7530,0.2470	-26.15
0.9534,0.0466	-23.88
0.8596,0.1404	-24.79
0.9726,0.0274	-23.73
0.9688,0.0312	-23.76
0.9486,0.0514	-23.92
0.7182,0.2818	-26.68
0.9546,0.0454	-23.87
0.8538,0.1462	-24.86
0.9695,0.0305	-23.75
0.9673,0.0327	-23.77
0.9430,0.0570	-23.97
0.7215,0.2785	-26.63
0.9526,0.0474	-23.89
0.8888,0.1112	-24.48
0.9675,0.0325	-23.77
0.9693,0.0307	-23.75
0.9439,0.0561	-23.96
0.7523,0.2477	-26.16
0.9510,0.0490	-23.90
0.8830,0.1170	-24.54
0.9760,0.0240	-23.70
0.9747,0.0253	-23.71
0.9458,0.0542	-23.95
0.7339,0.2661	-26.44
0.9486,0.0514	-23.92
0.8569,0.1431	-24.82
0.9751,0.0249	-23.71
0.9723,0.0277	-23.73
0.9455,0.0545	-23.95
0.7394,0.2606	-26.35
0.9662,0.0338	-23.78
0.8862,0.1138	-24.51
0.9734,0.0266	-23.72
0.9689,0.0311	-23.76
0.9428,0.0572	-23.97
0.7607,0.2393	-26.04
0.9650,0.0350	-23.79
0.8991,0.1009	-24.38
0.9713,0.0287	-23.74
0.9667,0.0333	-23.77
0.9307,0.0693	-24.08
0.7367,0.2633	-26.40
0.9648,0.0352	-23.79
0.9067,0.0933	-24.30
0.9732,0.0268	-23.72
0.9558,0.0442	-23.86
0.9440,0.0560	-23.96
0.7165,0.2835	-26.71
0.9595,0.0405	-23.83
0.9113,0.0887	-24.26
0.9726,0.0274	-23.73
0.9433,0.0567	-23.97
0.9357,0.0643	-24.04
0.6652,0.3348	-27.59
0.9645,0.0355	-23.79
0.9034,0.0966	-24.34
0.9635,0.0365	-23.80
0.9422,0.0578	-23.98
0.9418,0.0582	-23.98
0.6514,0.3486	-27.84
0.9576,0.0424	-23.85
0.9040,0.0960	-24.33
0.9667,0.0333	-23.77
0.9499,0.0501	-23.91
0.9243,0.0757	-24.14
0.6472,0.3528	-27.92
0.9542,0.0458	-23.88
0.9046,0.0954	-24.32
0.9637,0.0363	-23.80
0.9575,0.0425	-23.85
0.9205,0.0795	-24.17
0.6676,0.3324	-27.55
0.9615,0.0385	-23.82
0.8877,0.1123	-24.49
0.9580,0.0420	-23.85
0.9559,0.0441	-23.86
0.9247,0.0753	-24.14
0.7097,0.2903	-26.82
0.9530,0.0470	-23.89
0.8959,0.1041	-24.41
0.9571,0.0429	-23.85
0.9461,0.0539	-23.95
0.9390,0.0610	-24.01
0.7047,0.2953	-26.90
0.9530,0.0470	-23.89
0.9159,0.0841	-24.22
0.9563,0.0437	-23.86
0.9583,0.0417	-23.84
0.9291,0.0709	-24.09
0.7154,0.2846	-26.73
0.9527,0.0473	-23.89
0.9108,0.0892	-24.26
0.9611,0.0389	-23.82
0.9526,0.0474	-23.89
0.9304,0.0696	-24.08
0.7142,0.2858	-26.75
0.9518,0.0482	-23.90
0.9034,0.0966	-24.34
0.9491,0.0509	-23.92
0.9430,0.0570	-23.97
0.9425,0.0575	-23.98
0.7138,0.2862	-26.76
0.9511,0.0489	-23.90
0.9206,0.0794	-24.17
0.9406,0.0594	-23.99
0.9379,0.0621	-24.02
0.9253,0.0747	-24.13
0.7025,0.2975	-26.94
0.9494,0.0506	-23.92
0.9296,0.0704	-24.09
0.9482,0.0518	-23.93
0.9197,0.0803	-24.18
0.9214,0.0786	-24.17
0.7346,0.2654	-26.43
0.9395,0.0605	-24.00
0.9430,0.0570	-23.97
0.9601,0.0399	-23.83
0.9114,0.0886	-24.26
0.8952,0.1048	-24.42
0.6901,0.3099	-27.15
0.9198,0.0802	-24.18
0.9527,0.0473	-23.89
0.9672,0.0328	-23.77
0.8998,0.1002	-24.37
0.8970,0.1030	-24.40
0.6708,0.3292	-27.49
0.8918,0.1082	-24.45
0.9626,0.0374	-23.81
0.9688,0.0312	-23.76
0.9125,0.0875	-24.25
0.8994,0.1006	-24.38
0.7092,0.2908	-26.83
0.8921,0.1079	-24.45
0.9637,0.0363	-23.80
0.9626,0.0374	-23.81
0.9076,0.0924	-24.30
0.8972,0.1028	-24.40
0.7523,0.2477	-26.16
0.8854,0.1146	-24.52
0.9647,0.0353	-23.79
0.9640,0.0360	-23.80
0.9107,0.0893	-24.27
0.9099,0.0901	-24.27
0.7656,0.2344	-25.97
0.8930,0.1070	-24.44
0.9667,0.0333	-23.77
0.9678,0.0322	-23.77
0.9147,0.0853	-24.23
0.8952,0.1048	-24.42
0.7946,0.2054	-25.58
0.9040,0.0960	-24.33
0.9664,0.0336	-23.78
0.9699,0.0301	-23.75
0.9041,0.0959	-24.33
0.8726,0.1274	-24.65
0.7472,0.2528	-26.24
0.9148,0.0852	-24.23
0.9673,0.0327	-23.77
0.9759,0.0241	-23.70
0.8978,0.1022	-24.39
0.9020,0.0980	-24.35
0.7469,0.2531	-26.24
0.9141,0.0859	-24.23
0.9637,0.0363	-23.80
0.9782,0.0218	-23.68
0.8952,0.1048	-24.42
0.9266,0.0734	-24.12
0.7333,0.2667	-26.45
0.9331,0.0669	-24.06
0.9612,0.0388	-23.82
0.9780,0.0220	-23.69
0.8958,0.1042	-24.41
0.9229,0.0771	-24.15
0.7578,0.2422	-26.08
0.8967,0.1033	-24.40
0.9674,0.0326	-23.77
0.9754,0.0246	-23.71
0.9140,0.0860	-24.23
0.9191,0.0809	-24.19
0.7251,0.2749	-26.57
0.9108,0.0892	-24.26
0.9703,0.0297	-23.75
0.9786,0.0214	-23.68
0.8873,0.1127	-24.50
0.9328,0.0672	-24.06
0.6930,0.3070	-27.10
0.9077,0.0923	-24.29
0.9720,0.0280	-23.73
0.9814,0.0186	-23.66
0.8775,0.1225	-24.60
0.9423,0.0577	-23.98
0.6475,0.3525	-27.92
0.8848,0.1152	-24.52
0.9690,0.0310	-23.76
0.9801,0.0199	-23.67
0.8736,0.1264	-24.64
0.9426,0.0574	-23.98
0.6696,0.3304	-27.51
0.8551,0.1449	-24.84
0.9647,0.0353	-23.79
0.9776,0.0224	-23.69
0.8802,0.1198	-24.57
0.9432,0.0568	-23.97
0.6636,0.3364	-27.62
0.8222,0.1778	-25.23
0.9657,0.0343	-23.78
0.9664,0.0336	-23.78
0.8989,0.1011	-24.38
0.9525,0.0475	-23.89
0.6881,0.3119	-27.18
0.8301,0.1699	-25.13
0.9549,0.0451	-23.87
0.9678,0.0322	-23.77
0.9059,0.0941	-24.31
0.9497,0.0503	-23.91
0.6799,0.3201	-27.32
0.8593,0.1407	-24.79
0.9477,0.0523	-23.93
0.9696,0.0304	-23.75
0.8942,0.1058	-24.43
0.9344,0.0656	-24.05
0.7367,0.2633	-26.39
0.8575,0.1425	-24.81
0.9480,0.0520	-23.93
0.9725,0.0275	-23.73
0.8927,0.1073	-24.44
0.9490,0.0510	-23.92
0.7445,0.2555	-26.28
0.8724,0.1276	-24.65
0.9494,0.0506	-23.92
0.9756,0.0244	-23.70
0.9015,0.0985	-24.35
0.9512,0.0488	-23.90
0.7391,0.2609	-26.36
0.8760,0.1240	-24.61
0.9391,0.0609	-24.01
0.9766,0.0234	-23.70
0.8916,0.1084	-24.45
0.9458,0.0542	-23.95
0.7673,0.2327	-25.95
0.8642,0.1358	-24.74
0.9533,0.0467	-23.88
0.9727,0.0273	-23.73
0.8849,0.1151	-24.52
0.9452,0.0548	-23.95
0.7971,0.2029	-25.54
0.8501,0.1499	-24.90
0.9376,0.0624	-24.02
0.9701,0.0299	-23.75
0.8810,0.1190	-24.56
0.9234,0.0766	-24.15
0.8261,0.1739	-25.18
0.8314,0.1686	-25.11
0.9121,0.0879	-24.25
0.9671,0.0329	-23.77
0.8529,0.1471	-24.87
0.9293,0.0707	-24.09
0.7973,0.2027	-25.54
0.8252,0.1748	-25.19
0.9058,0.0942	-24.31
0.9690,0.0310	-23.76
0.8636,0.1364	-24.75
0.9506,0.0494	-23.91
0.8444,0.1556	-24.96
0.8768,0.1232	-24.61
0.9043,0.0957	-24.33
0.9722,0.0278	-23.73
0.8677,0.1323	-24.70
0.9521,0.0479	-23.89
0.8559,0.1441	-24.83
0.8854,0.1146	-24.52
0.9171,0.0829	-24.21
0.9722,0.0278	-23.73
0.8538,0.1462	-24.86
0.9452,0.0548	-23.95
0.8742,0.1258	-24.63
0.8680,0.1320	-24.70
0.9105,0.0895	-24.27
0.9779,0.0221	-23.69
0.8605,0.1395	-24.78
0.9514,0.0486	-23.90
0.8896,0.1104	-24.47
0.8744,0.1256	-24.63
0.9242,0.0758	-24.14
0.9760,0.0240	-23.70
0.8679,0.1321	-24.70
0.9373,0.0627	-24.02
0.8773,0.1227	-24.60
0.8404,0.1596	-25.01
0.9212,0.0788	-24.17
0.9779,0.0221	-23.69
0.9194,0.0806	-24.18
0.9555,0.0445	-23.87
0.8620,0.1380	-24.76
0.8626,0.1374	-24.76
0.9264,0.0736	-24.12
0.9719,0.0281	-23.73
0.9176,0.0824	-24.20
0.9521,0.0479	-23.89
0.8450,0.1550	-24.96
0.8681,0.1319	-24.70
0.9415,0.0585	-23.98
0.9799,0.0201	-23.67
0.9260,0.0740	-24.12
0.9547,0.0453	-23.87
0.8480,0.1520	-24.92
0.8479,0.1521	-24.92
0.9541,0.0459	-23.88
0.9781,0.0219	-23.68
0.9103,0.0897	-24.27
0.9606,0.0394	-23.82
0.8359,0.1641	-25.06
0.8764,0.1236	-24.61
0.9540,0.0460	-23.88
0.9797,0.0203	-23.67
0.9173,0.0827	-24.20
0.9617,0.0383	-23.82
0.8524,0.1476	-24.87
0.8597,0.1403	-24.79
0.9396,0.0604	-24.00
0.9784,0.0216	-23.68
0.9037,0.0963	-24.33
0.9641,0.0359	-23.80
0.8674,0.1326	-24.71
0.8893,0.1107	-24.48
0.9335,0.0665	-24.06
0.9787,0.0213	-23.68
0.8954,0.1046	-24.42
0.9662,0.0338	-23.78
0.8647,0.1353	-24.73
0.9026,0.0974	-24.34
0.9304,0.0696	-24.08
0.9755,0.0245	-23.70
0.9083,0.0917	-24.29
0.9686,0.0314	-23.76
0.8907,0.1093	-24.46
0.8909,0.1091	-24.46
0.9250,0.0750	-24.13
0.9791,0.0209	-23.68
0.9213,0.0787	-24.17
0.9703,0.0297	-23.75
0.8968,0.1032	-24.40
0.8996,0.1004	-24.37
0.9166,0.0834	-24.21
0.9767,0.0233	-23.70
0.9211,0.0789	-24.17
0.9737,0.0263	-23.72
0.8934,0.1066	-24.44
0.9024,0.0976	-24.35
0.9305,0.0695	-24.08
0.9769,0.0231	-23.69
0.9291,0.0709	-24.09
0.9754,0.0246	-23.71
0.8952,0.1048	-24.42
0.8978,0.1022	-24.39
0.9497,0.0503	-23.91
0.9686,0.0314	-23.76
0.9336,0.0664	-24.05
0.9680,0.0320	-23.76
0.9090,0.0910	-24.28
0.9160,0.0840	-24.22
0.9626,0.0374	-23.81
0.9623,0.0377	-23.81
0.9408,0.0592	-23.99
0.9575,0.0425	-23.85
0.8932,0.1068	-24.44
0.9114,0.0886	-24.26
0.9617,0.0383	-23.81
0.9691,0.0309	-23.76
0.9432,0.0568	-23.97
0.9538,0.0462	-23.88
0.9059,0.0941	-24.31
0.9286,0.0714	-24.10
0.9648,0.0352	-23.79
0.9682,0.0318	-23.76
0.9472,0.0528	-23.94
0.9579,0.0421	-23.85
0.8880,0.1120	-24.49
0.9298,0.0702	-24.09
0.9656,0.0344	-23.78
0.9701,0.0299	-23.75
0.9473,0.0527	-23.93
0.9549,0.0451	-23.87
0.8972,0.1028	-24.40
0.9397,0.0603	-24.00
0.9641,0.0359	-23.80
0.9670,0.0330	-23.77
0.9446,0.0554	-23.96
0.9588,0.0412	-23.84
0.8952,0.1048	-24.42
0.9318,0.0682	-24.07
0.9529,0.0471	-23.89
0.9618,0.0382	-23.81
0.9452,0.0548	-23.95
0.9555,0.0445	-23.87
0.9112,0.0888	-24.26
0.9427,0.0573	-23.97
0.9536,0.0464	-23.88
0.9638,0.0362	-23.80
0.9491,0.0509	-23.92
0.9500,0.0500	-23.91
0.9020,0.0980	-24.35
0.9422,0.0578	-23.98
0.9634,0.0366	-23.80
0.9741,0.0259	-23.72
0.9458,0.0542	-23.95
0.9393,0.0607	-24.00
0.8912,0.1088	-24.46
0.9413,0.0587	-23.99
0.9685,0.0315	-23.76
0.9741,0.0259	-23.72
0.9378,0.0622	-24.02
0.9369,0.0631	-24.03
0.8854,0.1146	-24.52
0.9442,0.0558	-23.96
0.9725,0.0275	-23.73
0.9716,0.0284	-23.74
0.9322,0.0678	-24.07
0.9494,0.0506	-23.92
0.9020,0.0980	-24.35
0.9280,0.0720	-24.10
0.9745,0.0255	-23.71
0.9703,0.0297	-23.75
0.9496,0.0504	-23.92
0.9464,0.0536	-23.94
0.8904,0.1096	-24.47
0.9321,0.0679	-24.07
0.9703,0.0297	-23.75
0.9606,0.0394	-23.82
0.9555,0.0445	-23.87
0.9375,0.0625	-24.02
0.8858,0.1142	-24.51
0.9420,0.0580	-23.98
0.9705,0.0295	-23.74
0.9689,0.0311	-23.76
0.9472,0.0528	-23.94
0.9363,0.0637	-24.03
0.8972,0.1028	-24.40
0.9488,0.0512	-23.92
0.9676,0.0324	-23.77
0.9664,0.0336	-23.78
0.9375,0.0625	-24.02
0.9502,0.0498	-23.91
0.9108,0.0892	-24.26
0.9512,0.0488	-23.90
0.9648,0.0352	-23.79
0.9659,0.0341	-23.78
0.9410,0.0590	-23.99
0.9520,0.0480	-23.89
0.9160,0.0840	-24.22
0.9504,0.0496	-23.91
0.9676,0.0324	-23.77
0.9635,0.0365	-23.80
0.9318,0.0682	-24.07
0.9487,0.0513	-23.92
0.9069,0.0931	-24.30
0.9595,0.0405	-23.83
0.9642,0.0358	-23.79
0.9570,0.0430	-23.85
0.9363,0.0637	-24.03
0.9473,0.0527	-23.94
0.9110,0.0890	-24.26
0.9553,0.0447	-23.87
0.9683,0.0317	-23.76
0.9551,0.0449	-23.87
0.9473,0.0527	-23.94
0.9515,0.0485	-23.90
0.8967,0.1033	-24.40
0.9541,0.0459	-23.88
0.9711,0.0289	-23.74
0.9525,0.0475	-23.89
0.9471,0.0529	-23.94
0.9498,0.0502	-23.91
0.8941,0.1059	-24.43
0.9680,0.0320	-23.76
0.9706,0.0294	-23.74
0.9581,0.0419	-23.84
0.9503,0.0497	-23.91
0.9540,0.0460	-23.88
0.8874,0.1126	-24.50
0.9600,0.0400	-23.83
0.9730,0.0270	-23.72
0.9518,0.0482	-23.90
0.9574,0.0426	-23.85
0.9488,0.0512	-23.92
0.8560,0.1440	-24.83
0.9550,0.0450	-23.87
0.9687,0.0313	-23.76
0.9541,0.0459	-23.88
0.9561,0.0439	-23.86
0.9498,0.0502	-23.91
0.8903,0.1097	-24.47
0.9595,0.0405	-23.83
0.9655,0.0345	-23.78
0.9504,0.0496	-23.91
0.9567,0.0433	-23.86
0.9516,0.0484	-23.90
0.8802,0.1198	-24.57
0.9554,0.0446	-23.87
0.9640,0.0360	-23.80
0.9510,0.0490	-23.90
0.9578,0.0422	-23.85
0.9407,0.0593	-23.99
0.8741,0.1259	-24.63
0.9587,0.0413	-23.84
0.9698,0.0302	-23.75
0.9527,0.0473	-23.89
0.9429,0.0571	-23.97
0.9418,0.0582	-23.98
0.8684,0.1316	-24.70
0.9549,0.0451	-23.87
0.9628,0.0372	-23.81
0.9465,0.0535	-23.94
0.9540,0.0460	-23.88
0.9548,0.0452	-23.87
0.8498,0.1502	-24.90
0.9494,0.0506	-23.92
0.9644,0.0356	-23.79
0.9468,0.0532	-23.94
0.9539,0.0461	-23.88
0.9590,0.0410	-23.84
0.8555,0.1445	-24.84
0.9397,0.0603	-24.00
0.9686,0.0314	-23.76
0.9512,0.0488	-23.90
0.9498,0.0502	-23.91
0.9561,0.0439	-23.86
0.8692,0.1308	-24.69
0.9404,0.0596	-23.99
0.9729,0.0271	-23.73
0.9476,0.0524	-23.93
0.9406,0.0594	-23.99
0.9553,0.0447	-23.87
0.8720,0.1280	-24.66
0.9240,0.0760	-24.14
0.9720,0.0280	-23.73
0.9440,0.0560	-23.96
0.9445,0.0555	-23.96
0.9473,0.0527	-23.94
0.8862,0.1138	-24.51
0.9223,0.0777	-24.16
0.9674,0.0326	-23.77
0.9437,0.0563	-23.97
0.9450,0.0550	-23.95
0.9461,0.0539	-23.95
0.8938,0.1062	-24.43
0.9064,0.0936	-24.31
0.9657,0.0343	-23.78
0.9360,0.0640	-24.03
0.9603,0.0397	-23.83
0.9445,0.0555	-23.96
0.8734,0.1266	-24.64
0.9064,0.0936	-24.31
0.9606,0.0394	-23.82
0.9395,0.0605	-24.00
0.9595,0.0405	-23.83
0.9358,0.0642	-24.04
0.8814,0.1186	-24.56
0.8932,0.1068	-24.44
0.9621,0.0379	-23.81
0.9465,0.0535	-23.94
0.9544,0.0456	-23.88
0.9442,0.0558	-23.96
0.8599,0.1401	-24.79
0.9092,0.0908	-24.28
0.9535,0.0465	-23.88
0.9429,0.0571	-23.97
0.9534,0.0466	-23.88
0.9415,0.0585	-23.99
0.8824,0.1176	-24.55
0.8917,0.1083	-24.45
0.9518,0.0482	-23.90
0.9374,0.0626	-24.02
0.9625,0.0375	-23.81
0.9193,0.0807	-24.18
0.8948,0.1052	-24.42
0.8884,0.1116	-24.49
0.9460,0.0540	-23.95
0.9305,0.0695	-24.08
0.9705,0.0295	-23.74
0.9185,0.0815	-24.19
0.8915,0.1085	-24.45
0.8765,0.1235	-24.61
0.9484,0.0516	-23.93
0.9134,0.0866	-24.24
0.9734,0.0266	-23.72
0.8986,0.1014	-24.38
0.8972,0.1028	-24.40
0.8864,0.1136	-24.51
0.9507,0.0493	-23.91
0.9035,0.0965	-24.34
0.9722,0.0278	-23.73
0.8912,0.1088	-24.46
0.8863,0.1137	-24.51
0.8854,0.1146	-24.52
0.9521,0.0479	-23.89
0.8905,0.1095	-24.46
0.9714,0.0286	-23.74
0.8936,0.1064	-24.43
0.8805,0.1195	-24.57
0.8831,0.1169	-24.54
0.9582,0.0418	-23.84
0.9047,0.0953	-24.32
0.9690,0.0310	-23.76
0.8761,0.1239	-24.61
0.8778,0.1222	-24.59
0.8869,0.1131	-24.50
0.9626,0.0374	-23.81
0.9075,0.0925	-24.30
0.9625,0.0375	-23.81
0.8709,0.1291	-24.67
0.8853,0.1147	-24.52
0.8871,0.1129	-24.50
0.9596,0.0404	-23.83
0.9117,0.0883	-24.26
0.9661,0.0339	-23.78
0.8717,0.1283	-24.66
0.8812,0.1188	-24.56
0.8965,0.1035	-24.40
0.9608,0.0392	-23.82
0.9153,0.0847	-24.22
0.9572,0.0428	-23.85
0.8814,0.1186	-24.56
0.8789,0.1211	-24.58
0.8814,0.1186	-24.56
0.9729,0.0271	-23.73
0.8989,0.1011	-24.38
0.9518,0.0482	-23.90
0.8840,0.1160	-24.53
0.8877,0.1123	-24.49
0.8746,0.1254	-24.63
0.9781,0.0219	-23.68
0.8978,0.1022	-24.39
0.9504,0.0496	-23.91
0.8927,0.1073	-24.44
0.9023,0.0977	-24.35
0.8983,0.1017	-24.39
0.9784,0.0216	-23.68
0.8782,0.1218	-24.59
0.9643,0.0357	-23.79
0.8781,0.1219	-24.59
0.9150,0.0850	-24.23
0.8976,0.1024	-24.39
0.9819,0.0181	-23.66
0.9017,0.0983	-24.35
0.9513,0.0487	-23.90
0.8658,0.1342	-24.72
0.9113,0.0887	-24.26
0.9054,0.0946	-24.32
0.9848,0.0152	-23.63
0.9065,0.0935	-24.31
0.9469,0.0531	-23.94
0.8664,0.1336	-24.72
0.9006,0.0994	-24.36
0.9118,0.0882	-24.26
0.9840,0.0160	-23.64
0.8997,0.1003	-24.37
0.9523,0.0477	-23.89
0.8754,0.1246	-24.62
0.8947,0.1053	-24.42
0.9221,0.0779	-24.16
0.9844,0.0156	-23.64
0.8911,0.1089	-24.46
0.9494,0.0506	-23.92
0.8503,0.1497	-24.90
0.8907,0.1093	-24.46
0.9227,0.0773	-24.15
0.9810,0.0190	-23.66
0.8922,0.1078	-24.45
0.9350,0.0650	-24.04
0.8585,0.1415	-24.80
0.9131,0.0869	-24.24
0.9288,0.0712	-24.10
0.9823,0.0177	-23.65
0.8987,0.1013	-24.38
0.9180,0.0820	-24.20
0.8488,0.1512	-24.91
0.9084,0.0916	-24.29
0.9438,0.0562	-23.97
0.9866,0.0134	-23.62
0.8852,0.1148	-24.52
0.9252,0.0748	-24.13
0.8541,0.1459	-24.85
0.9057,0.0943	-24.31
0.9503,0.0497	-23.91
0.9827,0.0173	-23.65
0.8740,0.1260	-24.64
0.9128,0.0872	-24.25
0.8579,0.1421	-24.81
0.9151,0.0849	-24.22
0.9491,0.0509	-23.92
0.9765,0.0235	-23.70
0.8556,0.1444	-24.84
0.8990,0.1010	-24.38
0.8732,0.1268	-24.64
0.9398,0.0602	-24.00
0.9551,0.0449	-23.87
0.9763,0.0237	-23.70
0.8320,0.1680	-25.11
0.8984,0.1016	-24.39
0.8944,0.1056	-24.43
0.9228,0.0772	-24.15
0.9602,0.0398	-23.83
0.9698,0.0302	-23.75
0.8257,0.1743	-25.18
0.9185,0.0815	-24.19
0.9025,0.0975	-24.34
0.9299,0.0701	-24.09
0.9539,0.0461	-23.88
0.9685,0.0315	-23.76
0.8144,0.1856	-25.32
0.9076,0.0924	-24.30
0.9074,0.0926	-24.30
0.9337,0.0663	-24.05
0.9517,0.0483	-23.90
0.9677,0.0323	-23.77
0.8408,0.1592	-25.00
0.9095,0.0905	-24.28
0.9105,0.0895	-24.27
0.9281,0.0719	-24.10
0.9494,0.0506	-23.92
0.9707,0.0293	-23.74
0.8253,0.1747	-25.19
0.9243,0.0757	-24.14
0.8967,0.1033	-24.40
0.9147,0.0853	-24.23
0.9560,0.0440	-23.86
0.9682,0.0318	-23.76
0.8425,0.1575	-24.98
0.9322,0.0678	-24.07
0.8895,0.1105	-24.47
0.9157,0.0843	-24.22
0.9518,0.0482	-23.90
0.9740,0.0260	-23.72
0.8947,0.1053	-24.42
0.9237,0.0763	-24.14
0.8888,0.1112	-24.48
0.9196,0.0804	-24.18
0.9510,0.0490	-23.90
0.9707,0.0293	-23.74
0.8809,0.1191	-24.56
0.9063,0.0937	-24.31
0.8683,0.1317	-24.70
0.9068,0.0932	-24.30
0.9297,0.0703	-24.09
0.9670,0.0330	-23.77
0.8613,0.1387	-24.77
0.8884,0.1116	-24.49
0.8785,0.1215	-24.59
0.8632,0.1368	-24.75
0.9405,0.0595	-23.99
0.9697,0.0303	-23.75
0.8849,0.1151	-24.52
0.8878,0.1122	-24.49
0.8681,0.1319	-24.70
0.8844,0.1156	-24.53
0.9346,0.0654	-24.05
0.9688,0.0312	-23.76
0.8534,0.1466	-24.86
0.8842,0.1158	-24.53
0.8943,0.1057	-24.43
0.8882,0.1118	-24.49
0.9170,0.0830	-24.21
0.9682,0.0318	-23.76
0.8425,0.1575	-24.98
0.8912,0.1088	-24.46
0.8790,0.1210	-24.58
0.8556,0.1444	-24.84
0.9046,0.0954	-24.32
0.9616,0.0384	-23.82
0.8576,0.1424	-24.81
0.8719,0.1281	-24.66
0.9010,0.0990	-24.36
0.8520,0.1480	-24.88
0.8934,0.1066	-24.44
0.9532,0.0468	-23.89
0.8336,0.1664	-25.09
0.8763,0.1237	-24.61
0.8848,0.1152	-24.52
0.8607,0.1393	-24.78
0.9013,0.0987	-24.36
0.9508,0.0492	-23.91
0.8068,0.1932	-25.42
0.8601,0.1399	-24.79
0.8585,0.1415	-24.80
0.8512,0.1488	-24.89
0.9115,0.0885	-24.26
0.9325,0.0675	-24.06
0.8095,0.1905	-25.38
0.8746,0.1254	-24.63
0.8657,0.1343	-24.72
0.8443,0.1557	-24.96
0.9249,0.0751	-24.13
0.9254,0.0746	-24.13
0.8089,0.1911	-25.39
0.8684,0.1316	-24.70
0.8636,0.1364	-24.75
0.8554,0.1446	-24.84
0.9217,0.0783	-24.16
0.9214,0.0786	-24.16
0.8035,0.1965	-25.46
0.8417,0.1583	-24.99
0.8548,0.1452	-24.84
0.8084,0.1916	-25.40
0.9356,0.0644	-24.04
0.9255,0.0745	-24.13
0.8057,0.1943	-25.43
0.8089,0.1911	-25.39
0.8413,0.1587	-25.00
0.7891,0.2109	-25.65
0.9463,0.0537	-23.94
0.9242,0.0758	-24.14
0.8339,0.1661	-25.08
0.7664,0.2336	-25.96
0.8176,0.1824	-25.28
0.7834,0.2166	-25.72
0.9482,0.0518	-23.93
0.9178,0.0822	-24.20
0.8452,0.1548	-24.95
0.7872,0.2128	-25.67
0.8079,0.1921	-25.40
0.7789,0.2211	-25.79
0.9468,0.0532	-23.94
0.9201,0.0799	-24.18
0.8269,0.1731	-25.17
0.8239,0.1761	-25.21
0.8369,0.1631	-25.05
0.7896,0.2104	-25.64
0.9372,0.0628	-24.02
0.9055,0.0945	-24.32
0.8181,0.1819	-25.28
0.8179,0.1821	-25.28
0.8250,0.1750	-25.19
0.7754,0.2246	-25.83
0.9617,0.0383	-23.81
0.8908,0.1092	-24.46
0.8432,0.1568	-24.98
0.8039,0.1961	-25.45
0.8534,0.1466	-24.86
0.8170,0.1830	-25.29
0.9705,0.0295	-23.74
0.8874,0.1126	-24.50
0.8333,0.1667	-25.09
0.8269,0.1731	-25.17
0.8608,0.1392	-24.78
0.7923,0.2077	-25.61
0.9741,0.0259	-23.72
0.8763,0.1237	-24.61
0.8398,0.1602	-25.02
0.8286,0.1714	-25.15
0.8672,0.1328	-24.71
0.7897,0.2103	-25.64
0.9704,0.0296	-23.74
0.8945,0.1055	-24.42
0.8704,0.1296	-24.67
0.8532,0.1468	-24.86
0.8505,0.1495	-24.89
0.7551,0.2449	-26.12
0.9717,0.0283	-23.73
0.8885,0.1115	-24.49
0.8743,0.1257	-24.63
0.8737,0.1263	-24.64
0.8234,0.1766	-25.21
0.6674,0.3326	-27.55
0.9742,0.0258	-23.72
0.8872,0.1128	-24.50
0.8886,0.1114	-24.48
0.8517,0.1483	-24.88
0.8134,0.1866	-25.33
0.7352,0.2648	-26.42
0.9716,0.0284	-23.74
0.8733,0.1267	-24.64
0.8942,0.1058	-24.43
0.8646,0.1354	-24.74
0.8177,0.1823	-25.28
0.6625,0.3375	-27.64
0.9688,0.0312	-23.76
0.8777,0.1223	-24.60
0.8818,0.1182	-24.55
0.8601,0.1399	-24.79
0.7755,0.2245	-25.83
0.6909,0.3091	-27.14
0.9677,0.0323	-23.77
0.8644,0.1356	-24.74
0.9005,0.0995	-24.36
0.8495,0.1505	-24.90
0.7833,0.2167	-25.73
0.6730,0.3270	-27.45
0.9632,0.0368	-23.80
0.8344,0.1656	-25.08
0.9161,0.0839	-24.21
0.8576,0.1424	-24.81
0.7577,0.2423	-26.08
0.6743,0.3257	-27.43
0.9738,0.0262	-23.72
0.8085,0.1915	-25.40
0.9058,0.0942	-24.31
0.8685,0.1315	-24.69
0.7705,0.2295	-25.90
0.7172,0.2828	-26.70
0.9673,0.0327	-23.77
