#isoforms=['chrX:153279729-153279601:-@chrX:153279555-153279493:-.A.withRI','chrX:153279729-153279601:-@chrX:153279555-153279493:-.B.dn_chrX:153279729-153279601:-@chrX:153279555-153279493:-.B.up']	exon_lens=('chrX:153279729-153279601:-@chrX:153279555-153279493:-.A.withRI',237),('chrX:153279729-153279601:-@chrX:153279555-153279493:-.B.dn',63),('chrX:153279729-153279601:-@chrX:153279555-153279493:-.B.up',129)	iters=5000	burn_in=500	lag=10	percent_accept=96.57	proposal_type=drift	counts=(0,0):1499,(1,0):432,(1,1):581	assigned_counts=0:1013	chrom=chrX	strand=-	mRNA_starts=153279493,153279493	mRNA_ends=153279729,153279729
sampled_psi	log_score
0.9950,0.0050	-814.51
0.9937,0.0063	-814.77
0.9892,0.0108	-815.75
0.9845,0.0155	-816.75
0.9918,0.0082	-815.19
0.9919,0.0081	-815.16
0.9947,0.0053	-814.57
0.9936,0.0064	-814.81
0.9886,0.0114	-815.87
0.9862,0.0138	-816.39
0.9935,0.0065	-814.83
0.9923,0.0077	-815.08
0.9953,0.0047	-814.44
0.9927,0.0073	-814.98
0.9910,0.0090	-815.35
0.9901,0.0099	-815.55
0.9922,0.0078	-815.10
0.9935,0.0065	-814.82
0.9945,0.0055	-814.61
0.9910,0.0090	-815.35
0.9897,0.0103	-815.64
0.9891,0.0109	-815.76
0.9889,0.0111	-815.80
0.9933,0.0067	-814.86
0.9955,0.0045	-814.39
0.9895,0.0105	-815.67
0.9901,0.0099	-815.54
0.9896,0.0104	-815.64
0.9887,0.0113	-815.84
0.9924,0.0076	-815.06
0.9956,0.0044	-814.39
0.9892,0.0108	-815.73
0.9890,0.0110	-815.77
0.9882,0.0118	-815.96
0.9896,0.0104	-815.65
0.9928,0.0072	-814.97
0.9954,0.0046	-814.42
0.9896,0.0104	-815.64
0.9894,0.0106	-815.70
0.9898,0.0102	-815.61
0.9899,0.0101	-815.59
0.9920,0.0080	-815.13
0.9943,0.0057	-814.64
0.9917,0.0083	-815.20
0.9884,0.0116	-815.91
0.9906,0.0094	-815.43
0.9922,0.0078	-815.11
0.9877,0.0123	-816.06
0.9951,0.0049	-814.47
0.9919,0.0081	-815.16
0.9890,0.0110	-815.77
0.9901,0.0099	-815.55
0.9917,0.0083	-815.21
0.9882,0.0118	-815.94
0.9953,0.0047	-814.45
0.9914,0.0086	-815.27
0.9879,0.0121	-816.02
0.9886,0.0114	-815.86
0.9935,0.0065	-814.82
0.9875,0.0125	-816.10
0.9957,0.0043	-814.37
0.9929,0.0071	-814.94
0.9871,0.0129	-816.18
0.9906,0.0094	-815.44
0.9919,0.0081	-815.15
0.9891,0.0109	-815.76
0.9948,0.0052	-814.54
0.9920,0.0080	-815.14
0.9901,0.0099	-815.55
0.9884,0.0116	-815.92
0.9905,0.0095	-815.46
0.9904,0.0096	-815.48
0.9956,0.0044	-814.39
0.9902,0.0098	-815.51
0.9910,0.0090	-815.35
0.9905,0.0095	-815.46
0.9914,0.0086	-815.26
0.9920,0.0080	-815.13
0.9963,0.0037	-814.24
0.9892,0.0108	-815.74
0.9911,0.0089	-815.34
0.9907,0.0093	-815.43
0.9910,0.0090	-815.35
0.9908,0.0092	-815.39
0.9951,0.0049	-814.48
0.9903,0.0097	-815.49
0.9909,0.0091	-815.38
0.9914,0.0086	-815.26
0.9889,0.0111	-815.79
0.9893,0.0107	-815.71
0.9954,0.0046	-814.42
0.9920,0.0080	-815.14
0.9897,0.0103	-815.62
0.9920,0.0080	-815.13
0.9913,0.0087	-815.30
0.9892,0.0108	-815.75
0.9947,0.0053	-814.58
0.9919,0.0081	-815.16
0.9908,0.0092	-815.38
0.9916,0.0084	-815.22
0.9924,0.0076	-815.05
0.9887,0.0113	-815.85
0.9937,0.0063	-814.78
0.9892,0.0108	-815.73
0.9912,0.0088	-815.31
0.9903,0.0097	-815.49
0.9929,0.0071	-814.94
0.9877,0.0123	-816.06
0.9931,0.0069	-814.91
0.9896,0.0104	-815.64
0.9921,0.0079	-815.11
0.9915,0.0085	-815.25
0.9932,0.0068	-814.88
0.9855,0.0145	-816.54
0.9942,0.0058	-814.67
0.9906,0.0094	-815.44
0.9932,0.0068	-814.89
0.9923,0.0077	-815.07
0.9948,0.0052	-814.55
0.9872,0.0128	-816.16
0.9945,0.0055	-814.60
0.9907,0.0093	-815.41
0.9933,0.0067	-814.85
0.9916,0.0084	-815.23
0.9939,0.0061	-814.74
0.9877,0.0123	-816.06
0.9943,0.0057	-814.64
0.9904,0.0096	-815.48
0.9944,0.0056	-814.64
0.9923,0.0077	-815.07
0.9935,0.0065	-814.81
0.9867,0.0133	-816.27
0.9947,0.0053	-814.57
0.9909,0.0091	-815.38
0.9940,0.0060	-814.72
0.9936,0.0064	-814.81
0.9938,0.0062	-814.76
0.9847,0.0153	-816.70
0.9941,0.0059	-814.70
0.9904,0.0096	-815.49
0.9928,0.0072	-814.96
0.9933,0.0067	-814.86
0.9945,0.0055	-814.62
0.9852,0.0148	-816.61
0.9938,0.0062	-814.76
0.9893,0.0107	-815.71
0.9940,0.0060	-814.72
0.9928,0.0072	-814.97
0.9934,0.0066	-814.83
0.9869,0.0131	-816.23
0.9938,0.0062	-814.75
0.9892,0.0108	-815.73
0.9935,0.0065	-814.82
0.9929,0.0071	-814.96
0.9931,0.0069	-814.91
0.9870,0.0130	-816.20
0.9938,0.0062	-814.76
0.9890,0.0110	-815.79
0.9932,0.0068	-814.88
0.9935,0.0065	-814.83
0.9946,0.0054	-814.58
0.9892,0.0108	-815.74
0.9926,0.0074	-815.01
0.9897,0.0103	-815.62
0.9924,0.0076	-815.06
0.9937,0.0063	-814.79
0.9947,0.0053	-814.57
0.9886,0.0114	-815.86
0.9922,0.0078	-815.11
0.9883,0.0117	-815.94
0.9906,0.0094	-815.45
0.9920,0.0080	-815.15
0.9931,0.0069	-814.90
0.9884,0.0116	-815.90
0.9928,0.0072	-814.97
0.9865,0.0135	-816.33
0.9910,0.0090	-815.36
0.9925,0.0075	-815.03
0.9933,0.0067	-814.86
0.9868,0.0132	-816.26
0.9912,0.0088	-815.32
0.9871,0.0129	-816.18
0.9896,0.0104	-815.65
0.9936,0.0064	-814.80
0.9926,0.0074	-815.02
0.9848,0.0152	-816.68
0.9925,0.0075	-815.02
0.9891,0.0109	-815.75
0.9878,0.0122	-816.05
0.9919,0.0081	-815.17
0.9913,0.0087	-815.28
0.9814,0.0186	-817.41
0.9948,0.0052	-814.55
0.9882,0.0118	-815.94
0.9883,0.0117	-815.93
0.9924,0.0076	-815.07
0.9898,0.0102	-815.61
0.9794,0.0206	-817.87
0.9955,0.0045	-814.40
0.9883,0.0117	-815.92
0.9903,0.0097	-815.50
0.9933,0.0067	-814.86
0.9901,0.0099	-815.54
0.9778,0.0222	-818.21
0.9938,0.0062	-814.77
0.9893,0.0107	-815.72
0.9912,0.0088	-815.30
0.9919,0.0081	-815.15
0.9924,0.0076	-815.04
0.9772,0.0228	-818.35
0.9931,0.0069	-814.90
0.9898,0.0102	-815.62
0.9916,0.0084	-815.22
0.9934,0.0066	-814.85
0.9930,0.0070	-814.92
0.9834,0.0166	-816.99
0.9947,0.0053	-814.56
0.9865,0.0135	-816.32
0.9935,0.0065	-814.83
0.9943,0.0057	-814.64
0.9941,0.0059	-814.70
0.9818,0.0182	-817.34
0.9946,0.0054	-814.58
0.9880,0.0120	-815.99
0.9935,0.0065	-814.82
0.9951,0.0049	-814.49
0.9937,0.0063	-814.78
0.9829,0.0171	-817.10
0.9951,0.0049	-814.49
0.9872,0.0128	-816.17
0.9945,0.0055	-814.61
0.9950,0.0050	-814.49
0.9931,0.0069	-814.91
0.9828,0.0172	-817.11
0.9945,0.0055	-814.60
0.9898,0.0102	-815.61
0.9931,0.0069	-814.91
0.9947,0.0053	-814.56
0.9918,0.0082	-815.17
0.9843,0.0157	-816.80
0.9934,0.0066	-814.83
0.9889,0.0111	-815.80
0.9934,0.0066	-814.83
0.9950,0.0050	-814.51
0.9910,0.0090	-815.36
0.9834,0.0166	-816.98
0.9935,0.0065	-814.82
0.9882,0.0118	-815.96
0.9936,0.0064	-814.81
0.9942,0.0058	-814.67
0.9913,0.0087	-815.29
0.9876,0.0124	-816.09
0.9933,0.0067	-814.85
0.9885,0.0115	-815.88
0.9933,0.0067	-814.86
0.9930,0.0070	-814.92
0.9931,0.0069	-814.91
0.9888,0.0112	-815.82
0.9932,0.0068	-814.88
0.9876,0.0124	-816.09
0.9936,0.0064	-814.81
0.9930,0.0070	-814.93
0.9931,0.0069	-814.92
0.9903,0.0097	-815.50
0.9931,0.0069	-814.92
0.9884,0.0116	-815.91
0.9937,0.0063	-814.77
0.9920,0.0080	-815.14
0.9927,0.0073	-814.99
0.9913,0.0087	-815.29
0.9938,0.0062	-814.76
0.9851,0.0149	-816.63
0.9928,0.0072	-814.97
0.9931,0.0069	-814.91
0.9943,0.0057	-814.64
0.9918,0.0082	-815.19
0.9917,0.0083	-815.21
0.9824,0.0176	-817.21
0.9920,0.0080	-815.13
0.9912,0.0088	-815.31
0.9941,0.0059	-814.68
0.9921,0.0079	-815.11
0.9917,0.0083	-815.19
0.9833,0.0167	-817.01
0.9914,0.0086	-815.26
0.9905,0.0095	-815.46
0.9949,0.0051	-814.52
0.9930,0.0070	-814.93
0.9925,0.0075	-815.03
0.9785,0.0215	-818.06
0.9931,0.0069	-814.91
0.9918,0.0082	-815.17
0.9937,0.0063	-814.77
0.9920,0.0080	-815.14
0.9921,0.0079	-815.12
0.9805,0.0195	-817.61
0.9919,0.0081	-815.15
0.9925,0.0075	-815.04
0.9939,0.0061	-814.75
0.9922,0.0078	-815.10
0.9937,0.0063	-814.77
0.9809,0.0191	-817.52
0.9899,0.0101	-815.59
0.9932,0.0068	-814.88
0.9924,0.0076	-815.05
0.9915,0.0085	-815.25
0.9940,0.0060	-814.71
0.9832,0.0168	-817.02
0.9917,0.0083	-815.21
0.9943,0.0057	-814.65
0.9937,0.0063	-814.79
0.9901,0.0099	-815.54
0.9935,0.0065	-814.83
0.9843,0.0157	-816.80
0.9905,0.0095	-815.46
0.9946,0.0054	-814.58
0.9948,0.0052	-814.54
0.9877,0.0123	-816.06
0.9902,0.0098	-815.53
0.9843,0.0157	-816.80
0.9899,0.0101	-815.60
0.9935,0.0065	-814.81
0.9953,0.0047	-814.45
0.9873,0.0127	-816.14
0.9909,0.0091	-815.38
0.9798,0.0202	-817.78
0.9898,0.0102	-815.61
0.9943,0.0057	-814.66
0.9951,0.0049	-814.49
0.9869,0.0131	-816.23
0.9905,0.0095	-815.46
0.9830,0.0170	-817.08
0.9908,0.0092	-815.39
0.9946,0.0054	-814.58
0.9953,0.0047	-814.44
0.9841,0.0159	-816.84
0.9902,0.0098	-815.53
0.9826,0.0174	-817.16
0.9874,0.0126	-816.12
0.9955,0.0045	-814.40
0.9959,0.0041	-814.31
0.9845,0.0155	-816.75
0.9918,0.0082	-815.18
0.9798,0.0202	-817.77
0.9902,0.0098	-815.52
0.9952,0.0048	-814.45
0.9947,0.0053	-814.56
0.9843,0.0157	-816.79
0.9921,0.0079	-815.12
0.9802,0.0198	-817.68
0.9905,0.0095	-815.45
0.9931,0.0069	-814.91
0.9923,0.0077	-815.08
0.9829,0.0171	-817.09
0.9927,0.0073	-814.99
0.9787,0.0213	-818.01
0.9915,0.0085	-815.25
0.9936,0.0064	-814.81
0.9922,0.0078	-815.10
0.9817,0.0183	-817.37
0.9941,0.0059	-814.70
0.9797,0.0203	-817.79
0.9906,0.0094	-815.43
0.9942,0.0058	-814.68
0.9916,0.0084	-815.23
0.9769,0.0231	-818.42
0.9951,0.0049	-814.48
0.9805,0.0195	-817.61
0.9903,0.0097	-815.49
0.9928,0.0072	-814.96
0.9914,0.0086	-815.26
0.9786,0.0214	-818.04
0.9952,0.0048	-814.47
0.9831,0.0169	-817.05
0.9879,0.0121	-816.02
0.9943,0.0057	-814.65
0.9919,0.0081	-815.15
0.9803,0.0197	-817.67
0.9946,0.0054	-814.59
0.9833,0.0167	-817.01
0.9889,0.0111	-815.80
0.9957,0.0043	-814.36
0.9921,0.0079	-815.12
0.9820,0.0180	-817.29
0.9936,0.0064	-814.81
0.9825,0.0175	-817.19
0.9875,0.0125	-816.10
0.9960,0.0040	-814.29
0.9927,0.0073	-815.00
0.9864,0.0136	-816.34
0.9944,0.0056	-814.62
0.9871,0.0129	-816.20
0.9884,0.0116	-815.91
0.9962,0.0038	-814.24
0.9910,0.0090	-815.35
0.9870,0.0130	-816.20
0.9946,0.0054	-814.60
0.9908,0.0092	-815.40
0.9878,0.0122	-816.04
0.9967,0.0033	-814.16
0.9910,0.0090	-815.35
0.9848,0.0152	-816.69
0.9951,0.0049	-814.49
0.9908,0.0092	-815.40
0.9873,0.0127	-816.15
0.9966,0.0034	-814.17
0.9917,0.0083	-815.19
0.9859,0.0141	-816.45
0.9947,0.0053	-814.56
0.9905,0.0095	-815.47
0.9853,0.0147	-816.58
0.9960,0.0040	-814.29
0.9907,0.0093	-815.41
0.9833,0.0167	-817.01
0.9957,0.0043	-814.36
0.9903,0.0097	-815.50
0.9867,0.0133	-816.27
0.9959,0.0041	-814.31
0.9907,0.0093	-815.41
0.9856,0.0144	-816.52
0.9959,0.0041	-814.31
0.9905,0.0095	-815.46
0.9845,0.0155	-816.75
0.9954,0.0046	-814.42
0.9903,0.0097	-815.50
0.9791,0.0209	-817.92
0.9959,0.0041	-814.32
0.9908,0.0092	-815.40
0.9795,0.0205	-817.84
0.9955,0.0045	-814.41
0.9923,0.0077	-815.07
0.9781,0.0219	-818.15
0.9962,0.0038	-814.25
0.9900,0.0100	-815.57
0.9798,0.0202	-817.76
0.9958,0.0042	-814.33
0.9925,0.0075	-815.02
0.9827,0.0173	-817.15
0.9961,0.0039	-814.27
0.9909,0.0091	-815.36
0.9815,0.0185	-817.40
0.9943,0.0057	-814.65
0.9930,0.0070	-814.92
0.9845,0.0155	-816.75
0.9957,0.0043	-814.36
0.9917,0.0083	-815.19
0.9791,0.0209	-817.92
0.9943,0.0057	-814.64
0.9925,0.0075	-815.03
0.9843,0.0157	-816.80
0.9955,0.0045	-814.39
0.9922,0.0078	-815.09
0.9774,0.0226	-818.29
0.9949,0.0051	-814.52
0.9934,0.0066	-814.84
0.9845,0.0155	-816.74
0.9939,0.0061	-814.73
0.9915,0.0085	-815.24
0.9767,0.0233	-818.46
0.9937,0.0063	-814.77
0.9938,0.0062	-814.75
0.9857,0.0143	-816.49
0.9942,0.0058	-814.68
0.9925,0.0075	-815.03
0.9834,0.0166	-816.99
0.9937,0.0063	-814.78
0.9926,0.0074	-815.01
0.9866,0.0134	-816.30
0.9951,0.0049	-814.49
0.9925,0.0075	-815.04
0.9819,0.0181	-817.31
0.9923,0.0077	-815.07
0.9925,0.0075	-815.03
0.9865,0.0135	-816.31
0.9953,0.0047	-814.44
0.9924,0.0076	-815.05
0.9806,0.0194	-817.61
0.9925,0.0075	-815.04
0.9904,0.0096	-815.48
0.9839,0.0161	-816.89
0.9952,0.0048	-814.46
0.9917,0.0083	-815.21
0.9846,0.0154	-816.72
0.9935,0.0065	-814.82
0.9901,0.0099	-815.55
0.9848,0.0152	-816.69
0.9960,0.0040	-814.29
0.9943,0.0057	-814.65
0.9848,0.0152	-816.69
0.9932,0.0068	-814.87
0.9893,0.0107	-815.72
0.9900,0.0100	-815.57
0.9958,0.0042	-814.34
0.9926,0.0074	-815.02
0.9833,0.0167	-817.00
0.9921,0.0079	-815.13
0.9899,0.0101	-815.58
0.9857,0.0143	-816.49
0.9949,0.0051	-814.52
0.9925,0.0075	-815.04
0.9812,0.0188	-817.48
0.9927,0.0073	-815.00
0.9916,0.0084	-815.23
0.9821,0.0179	-817.27
0.9950,0.0050	-814.50
0.9941,0.0059	-814.70
0.9818,0.0182	-817.34
0.9927,0.0073	-814.99
0.9919,0.0081	-815.17
0.9846,0.0154	-816.73
0.9942,0.0058	-814.67
0.9941,0.0059	-814.69
0.9817,0.0183	-817.37
0.9921,0.0079	-815.12
0.9918,0.0082	-815.17
0.9850,0.0150	-816.63
0.9941,0.0059	-814.70
0.9942,0.0058	-814.68
0.9814,0.0186	-817.43
0.9908,0.0092	-815.39
0.9901,0.0099	-815.55
0.9814,0.0186	-817.43
0.9928,0.0072	-814.98
0.9952,0.0048	-814.47
0.9819,0.0181	-817.31
0.9902,0.0098	-815.53
0.9907,0.0093	-815.41
0.9814,0.0186	-817.43
0.9930,0.0070	-814.94
0.9958,0.0042	-814.33
0.9848,0.0152	-816.69
0.9900,0.0100	-815.57
0.9881,0.0119	-815.96
0.9829,0.0171	-817.09
0.9935,0.0065	-814.82
0.9958,0.0042	-814.33
0.9840,0.0160	-816.87
0.9903,0.0097	-815.50
0.9907,0.0093	-815.41
0.9790,0.0210	-817.94
0.9928,0.0072	-814.97
0.9960,0.0040	-814.30
0.9821,0.0179	-817.28
0.9912,0.0088	-815.32
0.9919,0.0081	-815.16
0.9790,0.0210	-817.96
0.9918,0.0082	-815.18
0.9948,0.0052	-814.55
0.9744,0.0256	-818.96
0.9914,0.0086	-815.26
0.9907,0.0093	-815.41
0.9826,0.0174	-817.16
0.9900,0.0100	-815.57
0.9959,0.0041	-814.32
0.9791,0.0209	-817.92
0.9912,0.0088	-815.32
0.9914,0.0086	-815.27
0.9840,0.0160	-816.85
0.9918,0.0082	-815.18
0.9960,0.0040	-814.30
0.9760,0.0240	-818.61
0.9919,0.0081	-815.17
0.9922,0.0078	-815.09
0.9850,0.0150	-816.64
0.9918,0.0082	-815.19
0.9957,0.0043	-814.36
0.9697,0.0303	-820.01
0.9908,0.0092	-815.39
0.9921,0.0079	-815.12
0.9838,0.0162	-816.91
0.9927,0.0073	-814.99
0.9955,0.0045	-814.40
0.9705,0.0295	-819.84
0.9914,0.0086	-815.26
0.9901,0.0099	-815.54
0.9879,0.0121	-816.02
0.9943,0.0057	-814.65
0.9960,0.0040	-814.30
0.9754,0.0246	-818.75
0.9915,0.0085	-815.24
0.9862,0.0138	-816.38
0.9885,0.0115	-815.88
0.9942,0.0058	-814.68
0.9958,0.0042	-814.33
0.9730,0.0270	-819.29
0.9920,0.0080	-815.13
0.9840,0.0160	-816.86
0.9918,0.0082	-815.19
0.9925,0.0075	-815.04
0.9958,0.0042	-814.33
0.9757,0.0243	-818.67
0.9887,0.0113	-815.84
0.9817,0.0183	-817.35
0.9923,0.0077	-815.08
0.9924,0.0076	-815.05
0.9952,0.0048	-814.46
0.9758,0.0242	-818.65
0.9873,0.0127	-816.15
0.9845,0.0155	-816.75
0.9931,0.0069	-814.90
0.9932,0.0068	-814.88
0.9954,0.0046	-814.43
0.9750,0.0250	-818.84
0.9888,0.0112	-815.82
0.9889,0.0111	-815.81
0.9948,0.0052	-814.54
0.9916,0.0084	-815.23
0.9955,0.0045	-814.40
0.9766,0.0234	-818.48
0.9874,0.0126	-816.12
0.9914,0.0086	-815.26
0.9940,0.0060	-814.71
0.9939,0.0061	-814.73
0.9943,0.0057	-814.66
0.9793,0.0207	-817.88
0.9884,0.0116	-815.90
0.9913,0.0087	-815.29
0.9928,0.0072	-814.98
0.9932,0.0068	-814.88
0.9953,0.0047	-814.45
0.9754,0.0246	-818.74
0.9884,0.0116	-815.90
0.9944,0.0056	-814.64
0.9912,0.0088	-815.31
0.9931,0.0069	-814.90
0.9959,0.0041	-814.32
0.9817,0.0183	-817.36
0.9904,0.0096	-815.47
0.9957,0.0043	-814.36
0.9909,0.0091	-815.38
0.9932,0.0068	-814.89
0.9954,0.0046	-814.41
0.9780,0.0220	-818.17
0.9910,0.0090	-815.36
0.9949,0.0051	-814.53
0.9896,0.0104	-815.66
0.9939,0.0061	-814.73
0.9964,0.0036	-814.20
0.9757,0.0243	-818.68
0.9917,0.0083	-815.21
0.9949,0.0051	-814.52
0.9894,0.0106	-815.69
0.9950,0.0050	-814.50
0.9968,0.0032	-814.12
0.9760,0.0240	-818.61
0.9892,0.0108	-815.74
0.9956,0.0044	-814.39
0.9909,0.0091	-815.37
0.9947,0.0053	-814.56
0.9965,0.0035	-814.20
0.9773,0.0227	-818.32
0.9902,0.0098	-815.53
0.9952,0.0048	-814.47
0.9913,0.0087	-815.29
0.9953,0.0047	-814.44
0.9969,0.0031	-814.10
0.9775,0.0225	-818.27
0.9926,0.0074	-815.01
0.9960,0.0040	-814.30
0.9891,0.0109	-815.75
0.9944,0.0056	-814.64
0.9969,0.0031	-814.10
0.9802,0.0198	-817.69
0.9915,0.0085	-815.25
0.9955,0.0045	-814.40
0.9907,0.0093	-815.42
0.9931,0.0069	-814.92
0.9958,0.0042	-814.33
0.9784,0.0216	-818.07
0.9926,0.0074	-815.01
0.9960,0.0040	-814.28
0.9894,0.0106	-815.69
0.9938,0.0062	-814.76
0.9950,0.0050	-814.51
0.9810,0.0190	-817.52
0.9924,0.0076	-815.05
0.9955,0.0045	-814.41
0.9904,0.0096	-815.47
0.9941,0.0059	-814.69
0.9934,0.0066	-814.84
0.9850,0.0150	-816.65
0.9912,0.0088	-815.31
0.9956,0.0044	-814.38
0.9879,0.0121	-816.01
0.9925,0.0075	-815.04
0.9916,0.0084	-815.23
0.9844,0.0156	-816.78
0.9874,0.0126	-816.13
0.9958,0.0042	-814.33
0.9890,0.0110	-815.79
0.9917,0.0083	-815.21
0.9930,0.0070	-814.92
0.9821,0.0179	-817.28
0.9883,0.0117	-815.94
0.9958,0.0042	-814.32
0.9875,0.0125	-816.10
0.9934,0.0066	-814.83
0.9939,0.0061	-814.73
0.9835,0.0165	-816.97
0.9886,0.0114	-815.87
0.9962,0.0038	-814.24
0.9832,0.0168	-817.04
0.9934,0.0066	-814.84
0.9930,0.0070	-814.92
0.9824,0.0176	-817.21
0.9878,0.0122	-816.04
0.9968,0.0032	-814.13
0.9833,0.0167	-817.00
0.9941,0.0059	-814.69
0.9931,0.0069	-814.91
0.9824,0.0176	-817.20
0.9875,0.0125	-816.10
0.9962,0.0038	-814.26
0.9809,0.0191	-817.54
0.9955,0.0045	-814.40
0.9920,0.0080	-815.14
0.9825,0.0175	-817.19
0.9867,0.0133	-816.28
0.9959,0.0041	-814.32
0.9780,0.0220	-818.16
0.9962,0.0038	-814.25
0.9898,0.0102	-815.61
0.9833,0.0167	-817.01
0.9881,0.0119	-815.98
0.9955,0.0045	-814.40
0.9772,0.0228	-818.35
0.9967,0.0033	-814.14
0.9894,0.0106	-815.68
0.9855,0.0145	-816.53
0.9887,0.0113	-815.85
0.9947,0.0053	-814.56
0.9800,0.0200	-817.73
0.9964,0.0036	-814.22
0.9918,0.0082	-815.19
0.9828,0.0172	-817.13
0.9910,0.0090	-815.34
0.9949,0.0051	-814.52
0.9794,0.0206	-817.87
0.9973,0.0027	-814.03
0.9899,0.0101	-815.59
0.9829,0.0171	-817.09
0.9914,0.0086	-815.28
0.9938,0.0062	-814.76
0.9796,0.0204	-817.82
0.9972,0.0028	-814.04
0.9910,0.0090	-815.35
0.9823,0.0177	-817.22
0.9916,0.0084	-815.23
0.9953,0.0047	-814.44
0.9787,0.0213	-818.03
0.9962,0.0038	-814.26
0.9887,0.0113	-815.85
0.9772,0.0228	-818.34
0.9909,0.0091	-815.37
0.9940,0.0060	-814.72
0.9791,0.0209	-817.93
0.9966,0.0034	-814.18
0.9883,0.0117	-815.94
0.9756,0.0244	-818.69
0.9924,0.0076	-815.05
0.9942,0.0058	-814.66
0.9846,0.0154	-816.72
0.9963,0.0037	-814.23
0.9857,0.0143	-816.49
0.9771,0.0229	-818.36
0.9912,0.0088	-815.30
0.9954,0.0046	-814.42
0.9840,0.0160	-816.86
0.9949,0.0051	-814.53
0.9847,0.0153	-816.71
0.9789,0.0211	-817.97
0.9894,0.0106	-815.70
0.9948,0.0052	-814.54
0.9832,0.0168	-817.04
0.9933,0.0067	-814.86
0.9830,0.0170	-817.07
0.9802,0.0198	-817.69
0.9895,0.0105	-815.67
0.9940,0.0060	-814.72
0.9823,0.0177	-817.23
0.9956,0.0044	-814.38
0.9818,0.0182	-817.33
0.9828,0.0172	-817.12
0.9887,0.0113	-815.85
0.9937,0.0063	-814.77
0.9847,0.0153	-816.70
0.9952,0.0048	-814.46
0.9830,0.0170	-817.07
0.9816,0.0184	-817.39
0.9887,0.0113	-815.85
0.9944,0.0056	-814.63
0.9874,0.0126	-816.13
0.9960,0.0040	-814.29
0.9832,0.0168	-817.03
0.9827,0.0173	-817.14
0.9896,0.0104	-815.65
0.9932,0.0068	-814.88
0.9903,0.0097	-815.51
0.9959,0.0041	-814.31
0.9871,0.0129	-816.19
0.9837,0.0163	-816.92
0.9908,0.0092	-815.40
0.9923,0.0077	-815.08
0.9908,0.0092	-815.39
0.9955,0.0045	-814.39
0.9865,0.0135	-816.32
0.9807,0.0193	-817.57
0.9912,0.0088	-815.30
0.9924,0.0076	-815.05
0.9911,0.0089	-815.34
0.9954,0.0046	-814.42
0.9862,0.0138	-816.39
0.9790,0.0210	-817.96
0.9922,0.0078	-815.10
0.9931,0.0069	-814.91
0.9920,0.0080	-815.13
0.9956,0.0044	-814.38
0.9856,0.0144	-816.50
0.9827,0.0173	-817.15
0.9921,0.0079	-815.12
0.9946,0.0054	-814.60
0.9912,0.0088	-815.30
0.9945,0.0055	-814.60
0.9830,0.0170	-817.07
0.9854,0.0146	-816.54
0.9918,0.0082	-815.18
0.9948,0.0052	-814.54
0.9897,0.0103	-815.62
0.9946,0.0054	-814.59
0.9843,0.0157	-816.79
0.9838,0.0162	-816.89
0.9939,0.0061	-814.74
0.9950,0.0050	-814.49
0.9916,0.0084	-815.22
0.9951,0.0049	-814.48
0.9857,0.0143	-816.50
0.9810,0.0190	-817.50
0.9940,0.0060	-814.71
0.9942,0.0058	-814.67
0.9928,0.0072	-814.96
0.9932,0.0068	-814.88
0.9848,0.0152	-816.69
0.9809,0.0191	-817.54
0.9947,0.0053	-814.56
0.9947,0.0053	-814.57
0.9903,0.0097	-815.50
0.9914,0.0086	-815.27
0.9871,0.0129	-816.18
0.9819,0.0181	-817.31
0.9946,0.0054	-814.58
0.9941,0.0059	-814.70
0.9906,0.0094	-815.45
0.9938,0.0062	-814.75
0.9867,0.0133	-816.27
0.9813,0.0187	-817.45
0.9943,0.0057	-814.65
0.9912,0.0088	-815.31
0.9885,0.0115	-815.89
0.9945,0.0055	-814.60
0.9868,0.0132	-816.26
0.9839,0.0161	-816.88
0.9952,0.0048	-814.45
0.9921,0.0079	-815.11
0.9872,0.0128	-816.16
0.9947,0.0053	-814.57
0.9887,0.0113	-815.84
0.9816,0.0184	-817.39
0.9949,0.0051	-814.52
0.9945,0.0055	-814.61
0.9869,0.0131	-816.23
0.9950,0.0050	-814.51
0.9871,0.0129	-816.20
0.9822,0.0178	-817.26
0.9950,0.0050	-814.50
0.9936,0.0064	-814.79
0.9868,0.0132	-816.25
0.9948,0.0052	-814.55
0.9851,0.0149	-816.62
0.9812,0.0188	-817.48
0.9960,0.0040	-814.28
0.9935,0.0065	-814.82
0.9848,0.0152	-816.69
0.9950,0.0050	-814.51
0.9857,0.0143	-816.50
0.9835,0.0165	-816.96
0.9958,0.0042	-814.34
0.9930,0.0070	-814.93
0.9836,0.0164	-816.94
0.9949,0.0051	-814.53
0.9886,0.0114	-815.86
0.9819,0.0181	-817.31
0.9960,0.0040	-814.29
0.9947,0.0053	-814.57
0.9836,0.0164	-816.95
0.9934,0.0066	-814.83
0.9901,0.0099	-815.55
0.9817,0.0183	-817.35
0.9958,0.0042	-814.34
0.9938,0.0062	-814.76
0.9845,0.0155	-816.76
0.9943,0.0057	-814.64
0.9890,0.0110	-815.79
0.9806,0.0194	-817.59
0.9960,0.0040	-814.29
0.9914,0.0086	-815.27
0.9861,0.0139	-816.40
0.9949,0.0051	-814.53
0.9863,0.0137	-816.36
0.9796,0.0204	-817.83
0.9938,0.0062	-814.76
0.9923,0.0077	-815.08
0.9853,0.0147	-816.57
0.9951,0.0049	-814.49
0.9868,0.0132	-816.25
0.9819,0.0181	-817.32
0.9930,0.0070	-814.92
0.9931,0.0069	-814.90
0.9890,0.0110	-815.78
0.9942,0.0058	-814.68
0.9837,0.0163	-816.92
0.9805,0.0195	-817.62
0.9937,0.0063	-814.79
0.9941,0.0059	-814.70
0.9897,0.0103	-815.63
0.9938,0.0062	-814.76
0.9806,0.0194	-817.61
0.9824,0.0176	-817.21
0.9937,0.0063	-814.78
0.9933,0.0067	-814.87
0.9913,0.0087	-815.29
0.9943,0.0057	-814.65
0.9844,0.0156	-816.78
0.9864,0.0136	-816.33
0.9950,0.0050	-814.51
0.9909,0.0091	-815.37
0.9936,0.0064	-814.80
0.9951,0.0049	-814.47
0.9877,0.0123	-816.07
0.9871,0.0129	-816.19
0.9946,0.0054	-814.59
0.9901,0.0099	-815.55
0.9922,0.0078	-815.09
0.9960,0.0040	-814.29
0.9854,0.0146	-816.55
0.9883,0.0117	-815.92
0.9927,0.0073	-815.00
0.9884,0.0116	-815.91
0.9923,0.0077	-815.08
0.9967,0.0033	-814.16
0.9856,0.0144	-816.52
0.9897,0.0103	-815.63
0.9927,0.0073	-815.00
0.9856,0.0144	-816.52
0.9907,0.0093	-815.42
0.9974,0.0026	-814.00
0.9851,0.0149	-816.62
0.9889,0.0111	-815.80
0.9932,0.0068	-814.90
0.9793,0.0207	-817.88
0.9908,0.0092	-815.40
0.9977,0.0023	-813.94
0.9905,0.0095	-815.46
0.9866,0.0134	-816.30
0.9943,0.0057	-814.66
0.9800,0.0200	-817.73
0.9899,0.0101	-815.58
0.9974,0.0026	-813.99
0.9903,0.0097	-815.50
0.9922,0.0078	-815.10
0.9936,0.0064	-814.80
0.9798,0.0202	-817.78
0.9915,0.0085	-815.24
0.9973,0.0027	-814.02
0.9905,0.0095	-815.45
0.9941,0.0059	-814.69
0.9920,0.0080	-815.13
0.9813,0.0187	-817.45
0.9937,0.0063	-814.77
0.9976,0.0024	-813.96
0.9909,0.0091	-815.38
0.9948,0.0052	-814.55
0.9929,0.0071	-814.96
0.9820,0.0180	-817.29
0.9938,0.0062	-814.76
0.9971,0.0029	-814.06
0.9923,0.0077	-815.07
0.9951,0.0049	-814.48
0.9936,0.0064	-814.81
0.9857,0.0143	-816.48
0.9931,0.0069	-814.91
0.9970,0.0030	-814.08
0.9916,0.0084	-815.23
0.9965,0.0035	-814.19
0.9919,0.0081	-815.16
0.9857,0.0143	-816.49
0.9929,0.0071	-814.94
0.9966,0.0034	-814.16
0.9921,0.0079	-815.11
0.9962,0.0038	-814.25
0.9927,0.0073	-814.99
0.9877,0.0123	-816.05
0.9932,0.0068	-814.89
0.9961,0.0039	-814.28
0.9913,0.0087	-815.29
0.9964,0.0036	-814.22
0.9915,0.0085	-815.25
0.9869,0.0131	-816.23
0.9939,0.0061	-814.74
0.9949,0.0051	-814.52
0.9918,0.0082	-815.18
0.9959,0.0041	-814.32
0.9927,0.0073	-814.99
0.9858,0.0142	-816.47
0.9938,0.0062	-814.77
0.9946,0.0054	-814.59
0.9926,0.0074	-815.01
0.9958,0.0042	-814.34
0.9923,0.0077	-815.07
0.9858,0.0142	-816.47
0.9942,0.0058	-814.67
0.9958,0.0042	-814.34
0.9903,0.0097	-815.49
0.9962,0.0038	-814.24
0.9928,0.0072	-814.96
0.9868,0.0132	-816.25
0.9961,0.0039	-814.26
0.9965,0.0035	-814.20
0.9914,0.0086	-815.27
0.9958,0.0042	-814.33
0.9933,0.0067	-814.86
0.9893,0.0107	-815.71
0.9967,0.0033	-814.14
0.9963,0.0037	-814.23
0.9862,0.0138	-816.37
0.9962,0.0038	-814.24
0.9932,0.0068	-814.89
0.9898,0.0102	-815.61
0.9964,0.0036	-814.20
0.9967,0.0033	-814.14
0.9839,0.0161	-816.87
0.9968,0.0032	-814.12
0.9934,0.0066	-814.84
0.9918,0.0082	-815.18
0.9964,0.0036	-814.22
0.9969,0.0031	-814.11
0.9832,0.0168	-817.04
0.9971,0.0029	-814.07
0.9907,0.0093	-815.42
0.9926,0.0074	-815.01
0.9968,0.0032	-814.13
0.9965,0.0035	-814.18
0.9803,0.0197	-817.67
0.9969,0.0031	-814.10
0.9904,0.0096	-815.48
0.9941,0.0059	-814.69
0.9966,0.0034	-814.17
0.9965,0.0035	-814.18
0.9795,0.0205	-817.84
0.9967,0.0033	-814.14
0.9903,0.0097	-815.50
0.9946,0.0054	-814.59
0.9964,0.0036	-814.21
0.9970,0.0030	-814.07
0.9733,0.0267	-819.22
0.9964,0.0036	-814.20
0.9856,0.0144	-816.52
0.9947,0.0053	-814.57
0.9966,0.0034	-814.18
0.9959,0.0041	-814.30
0.9676,0.0324	-820.48
0.9962,0.0038	-814.25
0.9861,0.0139	-816.41
0.9949,0.0051	-814.53
0.9962,0.0038	-814.26
0.9966,0.0034	-814.16
0.9663,0.0337	-820.77
0.9962,0.0038	-814.25
0.9874,0.0126	-816.12
0.9933,0.0067	-814.86
0.9968,0.0032	-814.12
0.9955,0.0045	-814.39
0.9690,0.0310	-820.17
0.9956,0.0044	-814.38
0.9870,0.0130	-816.20
0.9925,0.0075	-815.03
0.9966,0.0034	-814.17
0.9952,0.0048	-814.47
0.9754,0.0246	-818.75
0.9958,0.0042	-814.34
0.9890,0.0110	-815.77
0.9925,0.0075	-815.04
0.9971,0.0029	-814.06
0.9956,0.0044	-814.38
0.9756,0.0244	-818.70
0.9961,0.0039	-814.27
0.9892,0.0108	-815.73
0.9907,0.0093	-815.43
0.9973,0.0027	-814.01
0.9933,0.0067	-814.85
0.9759,0.0241	-818.63
0.9970,0.0030	-814.08
0.9897,0.0103	-815.64
0.9922,0.0078	-815.11
0.9972,0.0028	-814.05
0.9914,0.0086	-815.26
0.9791,0.0209	-817.92
0.9978,0.0022	-813.92
0.9900,0.0100	-815.56
0.9905,0.0095	-815.46
0.9960,0.0040	-814.30
0.9901,0.0099	-815.55
0.9812,0.0188	-817.47
0.9982,0.0018	-813.83
0.9897,0.0103	-815.63
0.9901,0.0099	-815.54
0.9961,0.0039	-814.28
0.9921,0.0079	-815.12
0.9826,0.0174	-817.17
0.9980,0.0020	-813.88
0.9867,0.0133	-816.29
0.9898,0.0102	-815.60
0.9964,0.0036	-814.21
0.9913,0.0087	-815.29
0.9777,0.0223	-818.24
0.9977,0.0023	-813.93
0.9904,0.0096	-815.48
0.9920,0.0080	-815.14
0.9961,0.0039	-814.28
0.9921,0.0079	-815.13
0.9791,0.0209	-817.92
0.9974,0.0026	-813.99
0.9916,0.0084	-815.23
0.9904,0.0096	-815.47
0.9953,0.0047	-814.44
0.9917,0.0083	-815.20
0.9727,0.0273	-819.35
0.9979,0.0021	-813.90
0.9920,0.0080	-815.14
0.9917,0.0083	-815.20
0.9954,0.0046	-814.43
0.9920,0.0080	-815.14
0.9765,0.0235	-818.51
0.9984,0.0016	-813.79
0.9916,0.0084	-815.23
0.9923,0.0077	-815.08
0.9949,0.0051	-814.53
0.9924,0.0076	-815.05
0.9745,0.0255	-818.93
0.9987,0.0013	-813.74
0.9925,0.0075	-815.04
0.9909,0.0091	-815.37
0.9944,0.0056	-814.62
0.9934,0.0066	-814.85
0.9741,0.0259	-819.03
0.9984,0.0016	-813.78
0.9921,0.0079	-815.12
0.9932,0.0068	-814.88
0.9952,0.0048	-814.47
0.9929,0.0071	-814.94
0.9709,0.0291	-819.75
0.9987,0.0013	-813.73
0.9927,0.0073	-815.00
0.9927,0.0073	-814.99
0.9940,0.0060	-814.71
0.9928,0.0072	-814.98
0.9746,0.0254	-818.92
0.9989,0.0011	-813.69
0.9945,0.0055	-814.61
0.9915,0.0085	-815.25
0.9937,0.0063	-814.79
0.9937,0.0063	-814.79
0.9683,0.0317	-820.32
0.9991,0.0009	-813.65
0.9950,0.0050	-814.51
0.9917,0.0083	-815.20
0.9923,0.0077	-815.07
0.9950,0.0050	-814.51
0.9703,0.0297	-819.87
0.9992,0.0008	-813.62
0.9952,0.0048	-814.46
0.9908,0.0092	-815.40
0.9924,0.0076	-815.06
0.9949,0.0051	-814.52
0.9695,0.0305	-820.06
0.9993,0.0007	-813.61
0.9955,0.0045	-814.39
0.9913,0.0087	-815.29
0.9924,0.0076	-815.05
0.9945,0.0055	-814.62
0.9674,0.0326	-820.54
0.9991,0.0009	-813.64
0.9955,0.0045	-814.41
0.9916,0.0084	-815.22
0.9913,0.0087	-815.29
0.9937,0.0063	-814.79
0.9673,0.0327	-820.55
0.9991,0.0009	-813.63
0.9947,0.0053	-814.57
0.9919,0.0081	-815.16
0.9909,0.0091	-815.37
0.9946,0.0054	-814.58
0.9657,0.0343	-820.92
0.9993,0.0007	-813.60
0.9944,0.0056	-814.63
0.9909,0.0091	-815.38
0.9926,0.0074	-815.01
0.9925,0.0075	-815.03
0.9699,0.0301	-819.98
0.9992,0.0008	-813.62
0.9950,0.0050	-814.50
0.9917,0.0083	-815.21
0.9920,0.0080	-815.14
0.9930,0.0070	-814.92
0.9662,0.0338	-820.81
0.9990,0.0010	-813.67
0.9947,0.0053	-814.57
0.9929,0.0071	-814.95
0.9901,0.0099	-815.54
0.9930,0.0070	-814.93
0.9670,0.0330	-820.63
0.9990,0.0010	-813.67
0.9948,0.0052	-814.54
0.9933,0.0067	-814.86
0.9885,0.0115	-815.89
0.9933,0.0067	-814.86
0.9582,0.0418	-822.63
0.9987,0.0013	-813.72
0.9944,0.0056	-814.63
0.9951,0.0049	-814.48
0.9900,0.0100	-815.57
0.9954,0.0046	-814.42
0.9670,0.0330	-820.63
0.9982,0.0018	-813.83
0.9962,0.0038	-814.25
0.9939,0.0061	-814.73
0.9930,0.0070	-814.92
0.9956,0.0044	-814.37
0.9676,0.0324	-820.49
0.9979,0.0021	-813.89
0.9962,0.0038	-814.25
0.9939,0.0061	-814.74
0.9904,0.0096	-815.48
0.9953,0.0047	-814.44
0.9675,0.0325	-820.51
0.9979,0.0021	-813.90
0.9954,0.0046	-814.43
0.9939,0.0061	-814.73
0.9891,0.0109	-815.76
0.9956,0.0044	-814.38
0.9696,0.0304	-820.03
0.9981,0.0019	-813.85
0.9958,0.0042	-814.33
0.9929,0.0071	-814.95
0.9859,0.0141	-816.44
0.9960,0.0040	-814.28
0.9700,0.0300	-819.95
0.9981,0.0019	-813.85
0.9966,0.0034	-814.16
0.9920,0.0080	-815.13
0.9816,0.0184	-817.39
0.9961,0.0039	-814.26
0.9715,0.0285	-819.61
0.9978,0.0022	-813.92
0.9966,0.0034	-814.18
0.9900,0.0100	-815.56
0.9856,0.0144	-816.51
0.9959,0.0041	-814.31
0.9730,0.0270	-819.28
0.9982,0.0018	-813.83
0.9962,0.0038	-814.26
0.9902,0.0098	-815.53
0.9889,0.0111	-815.80
0.9963,0.0037	-814.23
0.9737,0.0263	-819.12
0.9984,0.0016	-813.79
0.9966,0.0034	-814.18
0.9908,0.0092	-815.38
0.9901,0.0099	-815.54
0.9969,0.0031	-814.09
0.9732,0.0268	-819.23
0.9982,0.0018	-813.82
0.9962,0.0038	-814.24
0.9933,0.0067	-814.87
0.9918,0.0082	-815.18
0.9961,0.0039	-814.27
0.9785,0.0215	-818.07
0.9980,0.0020	-813.88
0.9965,0.0035	-814.18
0.9940,0.0060	-814.71
0.9899,0.0101	-815.59
0.9962,0.0038	-814.25
0.9845,0.0155	-816.74
0.9976,0.0024	-813.97
0.9958,0.0042	-814.34
0.9937,0.0063	-814.77
0.9906,0.0094	-815.44
0.9951,0.0049	-814.49
0.9857,0.0143	-816.49
0.9982,0.0018	-813.84
0.9948,0.0052	-814.54
0.9936,0.0064	-814.81
0.9906,0.0094	-815.44
0.9957,0.0043	-814.36
0.9860,0.0140	-816.44
0.9982,0.0018	-813.83
0.9959,0.0041	-814.32
0.9911,0.0089	-815.33
0.9906,0.0094	-815.45
0.9947,0.0053	-814.57
0.9839,0.0161	-816.89
0.9979,0.0021	-813.90
0.9952,0.0048	-814.46
0.9879,0.0121	-816.02
0.9922,0.0078	-815.09
0.9941,0.0059	-814.69
0.9841,0.0159	-816.83
0.9978,0.0022	-813.92
0.9955,0.0045	-814.39
0.9850,0.0150	-816.64
0.9911,0.0089	-815.34
0.9931,0.0069	-814.91
0.9830,0.0170	-817.08
0.9980,0.0020	-813.87
0.9938,0.0062	-814.75
0.9846,0.0154	-816.72
0.9908,0.0092	-815.40
0.9942,0.0058	-814.67
0.9800,0.0200	-817.73
0.9975,0.0025	-813.98
0.9925,0.0075	-815.02
0.9854,0.0146	-816.56
0.9894,0.0106	-815.70
0.9947,0.0053	-814.57
0.9862,0.0138	-816.39
0.9970,0.0030	-814.09
0.9931,0.0069	-814.91
0.9841,0.0159	-816.83
0.9876,0.0124	-816.08
0.9952,0.0048	-814.46
0.9877,0.0123	-816.06
0.9964,0.0036	-814.21
0.9930,0.0070	-814.92
0.9840,0.0160	-816.85
0.9851,0.0149	-816.63
0.9939,0.0061	-814.73
0.9852,0.0148	-816.61
0.9968,0.0032	-814.12
0.9947,0.0053	-814.56
0.9881,0.0119	-815.97
0.9871,0.0129	-816.18
0.9947,0.0053	-814.56
0.9846,0.0154	-816.74
0.9967,0.0033	-814.15
0.9950,0.0050	-814.51
0.9891,0.0109	-815.76
0.9858,0.0142	-816.47
0.9954,0.0046	-814.41
0.9851,0.0149	-816.62
0.9966,0.0034	-814.18
0.9946,0.0054	-814.58
0.9891,0.0109	-815.76
0.9864,0.0136	-816.33
0.9951,0.0049	-814.49
0.9808,0.0192	-817.56
0.9966,0.0034	-814.16
0.9953,0.0047	-814.44
0.9872,0.0128	-816.16
0.9859,0.0141	-816.44
0.9966,0.0034	-814.18
0.9818,0.0182	-817.33
0.9966,0.0034	-814.17
0.9954,0.0046	-814.42
0.9845,0.0155	-816.75
0.9899,0.0101	-815.58
0.9966,0.0034	-814.17
0.9877,0.0123	-816.06
0.9969,0.0031	-814.10
0.9961,0.0039	-814.26
0.9830,0.0170	-817.07
0.9913,0.0087	-815.29
0.9971,0.0029	-814.07
0.9875,0.0125	-816.11
0.9971,0.0029	-814.07
0.9946,0.0054	-814.58
0.9801,0.0199	-817.71
0.9932,0.0068	-814.89
0.9978,0.0022	-813.92
0.9855,0.0145	-816.54
0.9954,0.0046	-814.42
0.9931,0.0069	-814.92
0.9835,0.0165	-816.96
0.9933,0.0067	-814.87
0.9981,0.0019	-813.86
0.9851,0.0149	-816.62
0.9955,0.0045	-814.40
0.9935,0.0065	-814.81
0.9826,0.0174	-817.15
0.9927,0.0073	-814.99
0.9983,0.0017	-813.81
0.9870,0.0130	-816.21
0.9946,0.0054	-814.59
0.9948,0.0052	-814.55
0.9802,0.0198	-817.68
0.9915,0.0085	-815.24
0.9989,0.0011	-813.69
0.9846,0.0154	-816.73
0.9950,0.0050	-814.50
0.9950,0.0050	-814.50
0.9814,0.0186	-817.42
0.9921,0.0079	-815.11
0.9987,0.0013	-813.73
0.9850,0.0150	-816.65
0.9943,0.0057	-814.66
0.9958,0.0042	-814.34
0.9802,0.0198	-817.68
0.9929,0.0071	-814.94
0.9988,0.0012	-813.71
0.9854,0.0146	-816.55
0.9928,0.0072	-814.96
0.9954,0.0046	-814.42
0.9829,0.0171	-817.11
0.9923,0.0077	-815.08
0.9984,0.0016	-813.78
0.9879,0.0121	-816.02
0.9917,0.0083	-815.21
0.9948,0.0052	-814.56
0.9816,0.0184	-817.38
0.9921,0.0079	-815.12
0.9986,0.0014	-813.74
0.9861,0.0139	-816.41
0.9920,0.0080	-815.15
0.9962,0.0038	-814.25
0.9850,0.0150	-816.65
0.9930,0.0070	-814.93
0.9987,0.0013	-813.73
0.9872,0.0128	-816.16
0.9907,0.0093	-815.41
0.9963,0.0037	-814.22
0.9812,0.0188	-817.46
0.9925,0.0075	-815.03
0.9985,0.0015	-813.77
0.9866,0.0134	-816.29
0.9905,0.0095	-815.47
0.9957,0.0043	-814.35
0.9781,0.0219	-818.15
0.9913,0.0087	-815.28
0.9984,0.0016	-813.80
0.9846,0.0154	-816.73
0.9927,0.0073	-815.00
0.9965,0.0035	-814.19
0.9768,0.0232	-818.42
0.9916,0.0084	-815.23
0.9983,0.0017	-813.81
0.9842,0.0158	-816.81
0.9928,0.0072	-814.97
0.9965,0.0035	-814.18
0.9722,0.0278	-819.46
0.9889,0.0111	-815.80
0.9985,0.0015	-813.76
0.9813,0.0187	-817.45
0.9919,0.0081	-815.16
0.9963,0.0037	-814.22
0.9737,0.0263	-819.12
0.9905,0.0095	-815.46
0.9987,0.0013	-813.73
0.9809,0.0191	-817.53
0.9920,0.0080	-815.14
0.9965,0.0035	-814.19
0.9657,0.0343	-820.92
0.9907,0.0093	-815.41
0.9989,0.0011	-813.69
0.9804,0.0196	-817.64
0.9935,0.0065	-814.81
0.9961,0.0039	-814.27
0.9685,0.0315	-820.28
0.9921,0.0079	-815.12
0.9989,0.0011	-813.69
0.9831,0.0169	-817.06
0.9929,0.0071	-814.95
0.9967,0.0033	-814.14
0.9705,0.0295	-819.83
0.9916,0.0084	-815.23
0.9988,0.0012	-813.71
0.9821,0.0179	-817.28
0.9934,0.0066	-814.84
0.9957,0.0043	-814.35
0.9713,0.0287	-819.65
0.9939,0.0061	-814.73
0.9990,0.0010	-813.67
0.9821,0.0179	-817.28
0.9924,0.0076	-815.06
0.9959,0.0041	-814.32
0.9715,0.0285	-819.61
0.9941,0.0059	-814.70
0.9989,0.0011	-813.68
0.9827,0.0173	-817.15
0.9938,0.0062	-814.77
0.9961,0.0039	-814.27
0.9763,0.0237	-818.55
0.9930,0.0070	-814.93
0.9991,0.0009	-813.65
0.9798,0.0202	-817.78
0.9947,0.0053	-814.57
0.9966,0.0034	-814.17
0.9809,0.0191	-817.53
0.9927,0.0073	-815.00
0.9990,0.0010	-813.66
0.9806,0.0194	-817.61
0.9947,0.0053	-814.57
0.9967,0.0033	-814.14
0.9801,0.0199	-817.71
0.9935,0.0065	-814.82
0.9991,0.0009	-813.64
0.9763,0.0237	-818.55
0.9943,0.0057	-814.64
0.9967,0.0033	-814.14
0.9832,0.0168	-817.04
0.9943,0.0057	-814.65
0.9992,0.0008	-813.63
0.9738,0.0262	-819.11
0.9940,0.0060	-814.72
0.9972,0.0028	-814.03
0.9794,0.0206	-817.86
0.9961,0.0039	-814.27
0.9990,0.0010	-813.66
0.9759,0.0241	-818.64
0.9941,0.0059	-814.69
0.9970,0.0030	-814.09
0.9793,0.0207	-817.89
0.9957,0.0043	-814.36
0.9989,0.0011	-813.69
0.9748,0.0252	-818.87
0.9945,0.0055	-814.61
0.9964,0.0036	-814.20
0.9839,0.0161	-816.87
0.9969,0.0031	-814.10
0.9987,0.0013	-813.72
0.9757,0.0243	-818.67
0.9944,0.0056	-814.62
0.9960,0.0040	-814.29
0.9790,0.0210	-817.94
0.9969,0.0031	-814.10
0.9985,0.0015	-813.77
0.9772,0.0228	-818.35
0.9940,0.0060	-814.72
0.9968,0.0032	-814.13
0.9744,0.0256	-818.96
0.9968,0.0032	-814.13
0.9981,0.0019	-813.84
0.9782,0.0218	-818.12
0.9924,0.0076	-815.06
0.9959,0.0041	-814.31
0.9754,0.0246	-818.73
0.9963,0.0037	-814.23
0.9981,0.0019	-813.85
0.9769,0.0231	-818.40
0.9915,0.0085	-815.24
0.9959,0.0041	-814.31
0.9693,0.0307	-820.09
0.9964,0.0036	-814.22
0.9978,0.0022	-813.92
0.9753,0.0247	-818.76
0.9921,0.0079	-815.12
0.9957,0.0043	-814.36
0.9714,0.0286	-819.64
0.9966,0.0034	-814.18
0.9975,0.0025	-813.97
0.9743,0.0257	-819.00
0.9915,0.0085	-815.25
0.9951,0.0049	-814.48
0.9729,0.0271	-819.30
0.9959,0.0041	-814.32
0.9975,0.0025	-813.98
0.9780,0.0220	-818.18
0.9921,0.0079	-815.11
0.9943,0.0057	-814.64
0.9705,0.0295	-819.83
0.9958,0.0042	-814.34
0.9973,0.0027	-814.03
0.9814,0.0186	-817.42
0.9928,0.0072	-814.98
0.9929,0.0071	-814.96
0.9750,0.0250	-818.82
0.9963,0.0037	-814.23
0.9973,0.0027	-814.03
0.9854,0.0146	-816.56
0.9950,0.0050	-814.51
0.9933,0.0067	-814.87
0.9812,0.0188	-817.48
0.9966,0.0034	-814.16
0.9973,0.0027	-814.01
0.9868,0.0132	-816.25
0.9955,0.0045	-814.39
0.9937,0.0063	-814.78
0.9777,0.0223	-818.24
0.9962,0.0038	-814.25
0.9970,0.0030	-814.07
0.9869,0.0131	-816.23
0.9957,0.0043	-814.35
0.9948,0.0052	-814.55
0.9778,0.0222	-818.22
0.9969,0.0031	-814.10
0.9973,0.0027	-814.01
0.9895,0.0105	-815.68
0.9968,0.0032	-814.13
0.9947,0.0053	-814.57
0.9751,0.0249	-818.81
0.9964,0.0036	-814.20
0.9977,0.0023	-813.94
0.9907,0.0093	-815.43
0.9968,0.0032	-814.12
0.9949,0.0051	-814.53
0.9747,0.0253	-818.90
0.9965,0.0035	-814.19
0.9979,0.0021	-813.88
0.9912,0.0088	-815.31
0.9972,0.0028	-814.03
0.9946,0.0054	-814.59
0.9774,0.0226	-818.31
0.9964,0.0036	-814.22
0.9982,0.0018	-813.84
0.9929,0.0071	-814.94
0.9962,0.0038	-814.25
0.9939,0.0061	-814.74
0.9791,0.0209	-817.93
0.9962,0.0038	-814.24
0.9982,0.0018	-813.84
0.9953,0.0047	-814.45
0.9956,0.0044	-814.38
0.9931,0.0069	-814.91
0.9814,0.0186	-817.42
0.9971,0.0029	-814.07
0.9989,0.0011	-813.69
0.9956,0.0044	-814.38
0.9948,0.0052	-814.55
0.9941,0.0059	-814.69
0.9825,0.0175	-817.19
0.9971,0.0029	-814.05
0.9991,0.0009	-813.65
0.9958,0.0042	-814.33
0.9951,0.0049	-814.48
0.9944,0.0056	-814.63
0.9858,0.0142	-816.47
0.9977,0.0023	-813.93
0.9992,0.0008	-813.62
0.9969,0.0031	-814.10
0.9948,0.0052	-814.55
0.9947,0.0053	-814.57
0.9842,0.0158	-816.81
0.9973,0.0027	-814.01
0.9991,0.0009	-813.64
0.9977,0.0023	-813.94
0.9936,0.0064	-814.79
0.9933,0.0067	-814.86
0.9879,0.0121	-816.02
0.9972,0.0028	-814.03
0.9993,0.0007	-813.59
0.9978,0.0022	-813.91
0.9942,0.0058	-814.67
0.9918,0.0082	-815.19
0.9886,0.0114	-815.86
0.9968,0.0032	-814.12
0.9996,0.0004	-813.55
0.9981,0.0019	-813.84
0.9938,0.0062	-814.75
0.9929,0.0071	-814.94
0.9893,0.0107	-815.71
0.9976,0.0024	-813.96
0.9996,0.0004	-813.54
0.9984,0.0016	-813.80
0.9933,0.0067	-814.87
0.9940,0.0060	-814.72
0.9861,0.0139	-816.40
0.9977,0.0023	-813.94
0.9996,0.0004	-813.53
0.9980,0.0020	-813.87
0.9936,0.0064	-814.80
0.9949,0.0051	-814.52
0.9882,0.0118	-815.95
0.9970,0.0030	-814.08
0.9996,0.0004	-813.53
0.9975,0.0025	-813.97
0.9941,0.0059	-814.69
0.9942,0.0058	-814.66
0.9892,0.0108	-815.73
0.9972,0.0028	-814.04
0.9997,0.0003	-813.52
0.9975,0.0025	-813.97
0.9951,0.0049	-814.48
0.9936,0.0064	-814.80
0.9894,0.0106	-815.70
0.9971,0.0029	-814.05
0.9997,0.0003	-813.51
0.9969,0.0031	-814.10
0.9961,0.0039	-814.28
0.9949,0.0051	-814.53
0.9873,0.0127	-816.15
0.9970,0.0030	-814.08
0.9997,0.0003	-813.52
0.9969,0.0031	-814.11
0.9960,0.0040	-814.29
0.9946,0.0054	-814.60
0.9887,0.0113	-815.84
0.9961,0.0039	-814.27
0.9996,0.0004	-813.54
0.9968,0.0032	-814.13
0.9958,0.0042	-814.34
0.9939,0.0061	-814.74
0.9891,0.0109	-815.76
0.9953,0.0047	-814.44
0.9996,0.0004	-813.54
0.9963,0.0037	-814.24
0.9942,0.0058	-814.68
0.9942,0.0058	-814.68
0.9889,0.0111	-815.80
0.9954,0.0046	-814.42
0.9995,0.0005	-813.55
0.9964,0.0036	-814.20
0.9937,0.0063	-814.78
0.9939,0.0061	-814.74
0.9878,0.0122	-816.05
0.9960,0.0040	-814.30
0.9995,0.0005	-813.55
0.9957,0.0043	-814.35
0.9939,0.0061	-814.74
0.9917,0.0083	-815.20
0.9881,0.0119	-815.98
0.9963,0.0037	-814.23
0.9995,0.0005	-813.56
0.9962,0.0038	-814.26
0.9949,0.0051	-814.52
0.9931,0.0069	-814.91
0.9871,0.0129	-816.20
0.9960,0.0040	-814.30
0.9996,0.0004	-813.55
0.9960,0.0040	-814.30
0.9954,0.0046	-814.42
0.9926,0.0074	-815.02
0.9867,0.0133	-816.27
0.9966,0.0034	-814.17
0.9996,0.0004	-813.54
0.9949,0.0051	-814.54
0.9954,0.0046	-814.42
0.9912,0.0088	-815.31
0.9852,0.0148	-816.60
0.9966,0.0034	-814.16
0.9995,0.0005	-813.56
0.9957,0.0043	-814.36
0.9954,0.0046	-814.41
0.9926,0.0074	-815.00
0.9843,0.0157	-816.80
0.9972,0.0028	-814.05
0.9994,0.0006	-813.57
0.9954,0.0046	-814.42
0.9938,0.0062	-814.76
0.9940,0.0060	-814.72
0.9888,0.0112	-815.83
0.9968,0.0032	-814.13
0.9993,0.0007	-813.59
0.9949,0.0051	-814.52
0.9932,0.0068	-814.88
0.9916,0.0084	-815.22
0.9908,0.0092	-815.40
0.9968,0.0032	-814.12
0.9994,0.0006	-813.58
0.9957,0.0043	-814.36
0.9934,0.0066	-814.83
0.9923,0.0077	-815.07
0.9878,0.0122	-816.03
0.9966,0.0034	-814.17
0.9995,0.0005	-813.56
0.9963,0.0037	-814.24
0.9935,0.0065	-814.83
0.9923,0.0077	-815.07
0.9865,0.0135	-816.31
0.9961,0.0039	-814.27
0.9994,0.0006	-813.57
0.9956,0.0044	-814.38
0.9927,0.0073	-814.99
0.9931,0.0069	-814.91
0.9860,0.0140	-816.42
0.9973,0.0027	-814.02
0.9993,0.0007	-813.59
0.9961,0.0039	-814.26
0.9940,0.0060	-814.72
0.9928,0.0072	-814.97
0.9858,0.0142	-816.48
0.9971,0.0029	-814.06
0.9994,0.0006	-813.57
0.9964,0.0036	-814.21
0.9914,0.0086	-815.26
0.9919,0.0081	-815.15
0.9890,0.0110	-815.79
0.9965,0.0035	-814.18
0.9994,0.0006	-813.58
0.9960,0.0040	-814.29
0.9888,0.0112	-815.83
0.9915,0.0085	-815.25
0.9893,0.0107	-815.73
0.9963,0.0037	-814.22
0.9995,0.0005	-813.56
0.9957,0.0043	-814.35
0.9881,0.0119	-815.98
0.9931,0.0069	-814.91
0.9879,0.0121	-816.02
0.9952,0.0048	-814.47
0.9994,0.0006	-813.58
0.9961,0.0039	-814.28
0.9880,0.0120	-815.99
0.9932,0.0068	-814.89
0.9886,0.0114	-815.87
0.9953,0.0047	-814.43
0.9992,0.0008	-813.62
0.9964,0.0036	-814.21
0.9891,0.0109	-815.76
0.9938,0.0062	-814.77
0.9899,0.0101	-815.59
0.9954,0.0046	-814.41
0.9994,0.0006	-813.58
0.9961,0.0039	-814.26
0.9896,0.0104	-815.64
0.9934,0.0066	-814.84
0.9909,0.0091	-815.38
0.9956,0.0044	-814.37
0.9994,0.0006	-813.59
0.9968,0.0032	-814.12
0.9893,0.0107	-815.71
0.9942,0.0058	-814.67
0.9912,0.0088	-815.31
0.9956,0.0044	-814.39
0.9994,0.0006	-813.58
0.9965,0.0035	-814.18
0.9890,0.0110	-815.79
0.9954,0.0046	-814.42
0.9900,0.0100	-815.56
0.9959,0.0041	-814.30
0.9993,0.0007	-813.60
0.9958,0.0042	-814.33
0.9889,0.0111	-815.80
0.9948,0.0052	-814.55
0.9901,0.0099	-815.54
0.9962,0.0038	-814.25
0.9991,0.0009	-813.65
0.9954,0.0046	-814.41
0.9899,0.0101	-815.58
0.9962,0.0038	-814.25
0.9895,0.0105	-815.67
0.9960,0.0040	-814.28
0.9990,0.0010	-813.65
0.9965,0.0035	-814.19
0.9920,0.0080	-815.14
0.9956,0.0044	-814.37
0.9896,0.0104	-815.64
0.9965,0.0035	-814.18
0.9992,0.0008	-813.62
0.9969,0.0031	-814.11
0.9941,0.0059	-814.70
0.9949,0.0051	-814.52
0.9914,0.0086	-815.28
0.9958,0.0042	-814.33
0.9991,0.0009	-813.65
0.9960,0.0040	-814.29
0.9942,0.0058	-814.67
0.9938,0.0062	-814.76
0.9912,0.0088	-815.31
0.9959,0.0041	-814.32
0.9989,0.0011	-813.68
0.9967,0.0033	-814.15
0.9940,0.0060	-814.73
0.9934,0.0066	-814.83
0.9926,0.0074	-815.00
0.9957,0.0043	-814.35
0.9989,0.0011	-813.69
0.9973,0.0027	-814.02
0.9937,0.0063	-814.78
0.9928,0.0072	-814.96
0.9926,0.0074	-815.02
0.9953,0.0047	-814.45
0.9989,0.0011	-813.68
0.9966,0.0034	-814.18
0.9929,0.0071	-814.95
0.9910,0.0090	-815.35
0.9913,0.0087	-815.28
0.9946,0.0054	-814.59
0.9986,0.0014	-813.74
0.9968,0.0032	-814.13
0.9914,0.0086	-815.27
0.9911,0.0089	-815.32
0.9910,0.0090	-815.35
0.9944,0.0056	-814.63
0.9984,0.0016	-813.78
0.9967,0.0033	-814.14
0.9917,0.0083	-815.20
0.9931,0.0069	-814.91
0.9941,0.0059	-814.69
0.9944,0.0056	-814.63
0.9988,0.0012	-813.71
0.9973,0.0027	-814.02
0.9929,0.0071	-814.95
0.9930,0.0070	-814.93
0.9948,0.0052	-814.55
0.9952,0.0048	-814.47
0.9990,0.0010	-813.67
0.9974,0.0026	-814.00
0.9943,0.0057	-814.65
0.9949,0.0051	-814.53
0.9948,0.0052	-814.54
0.9939,0.0061	-814.74
0.9990,0.0010	-813.66
0.9972,0.0028	-814.03
0.9943,0.0057	-814.65
0.9948,0.0052	-814.54
0.9960,0.0040	-814.30
0.9930,0.0070	-814.93
0.9992,0.0008	-813.63
0.9969,0.0031	-814.11
0.9934,0.0066	-814.85
0.9944,0.0056	-814.63
0.9958,0.0042	-814.33
0.9932,0.0068	-814.89
0.9992,0.0008	-813.61
0.9960,0.0040	-814.30
0.9931,0.0069	-814.91
0.9937,0.0063	-814.77
0.9956,0.0044	-814.38
0.9950,0.0050	-814.51
0.9994,0.0006	-813.58
0.9964,0.0036	-814.21
0.9942,0.0058	-814.68
0.9936,0.0064	-814.80
0.9963,0.0037	-814.23
0.9950,0.0050	-814.51
0.9994,0.0006	-813.59
0.9960,0.0040	-814.30
0.9948,0.0052	-814.54
0.9930,0.0070	-814.93
0.9965,0.0035	-814.20
0.9955,0.0045	-814.40
0.9992,0.0008	-813.62
0.9963,0.0037	-814.23
0.9926,0.0074	-815.00
0.9916,0.0084	-815.23
0.9969,0.0031	-814.11
0.9950,0.0050	-814.50
0.9991,0.0009	-813.64
0.9962,0.0038	-814.24
0.9923,0.0077	-815.08
0.9914,0.0086	-815.26
0.9970,0.0030	-814.08
0.9953,0.0047	-814.43
0.9993,0.0007	-813.60
0.9970,0.0030	-814.08
0.9919,0.0081	-815.15
0.9881,0.0119	-815.97
0.9972,0.0028	-814.05
0.9957,0.0043	-814.36
0.9995,0.0005	-813.57
0.9974,0.0026	-813.99
0.9916,0.0084	-815.22
0.9854,0.0146	-816.55
0.9970,0.0030	-814.09
0.9967,0.0033	-814.15
0.9995,0.0005	-813.57
0.9969,0.0031	-814.10
0.9906,0.0094	-815.45
0.9858,0.0142	-816.47
0.9964,0.0036	-814.21
0.9967,0.0033	-814.15
0.9995,0.0005	-813.55
0.9975,0.0025	-813.98
0.9901,0.0099	-815.55
0.9873,0.0127	-816.14
0.9965,0.0035	-814.20
0.9966,0.0034	-814.17
0.9996,0.0004	-813.53
0.9973,0.0027	-814.02
0.9886,0.0114	-815.86
0.9894,0.0106	-815.70
0.9954,0.0046	-814.43
0.9966,0.0034	-814.18
0.9996,0.0004	-813.54
0.9975,0.0025	-813.99
0.9884,0.0116	-815.91
0.9887,0.0113	-815.84
0.9963,0.0037	-814.24
0.9969,0.0031	-814.11
0.9995,0.0005	-813.57
0.9972,0.0028	-814.04
0.9905,0.0095	-815.46
0.9899,0.0101	-815.59
0.9973,0.0027	-814.03
0.9972,0.0028	-814.05
0.9993,0.0007	-813.59
0.9975,0.0025	-813.98
0.9891,0.0109	-815.77
0.9895,0.0105	-815.67
0.9966,0.0034	-814.16
0.9972,0.0028	-814.03
0.9992,0.0008	-813.62
0.9975,0.0025	-813.98
0.9897,0.0103	-815.63
0.9890,0.0110	-815.78
0.9964,0.0036	-814.20
0.9969,0.0031	-814.10
0.9992,0.0008	-813.63
0.9980,0.0020	-813.88
0.9909,0.0091	-815.37
0.9882,0.0118	-815.95
0.9962,0.0038	-814.26
0.9968,0.0032	-814.12
0.9992,0.0008	-813.62
0.9978,0.0022	-813.91
0.9921,0.0079	-815.12
0.9882,0.0118	-815.96
0.9959,0.0041	-814.32
0.9965,0.0035	-814.18
0.9993,0.0007	-813.60
0.9972,0.0028	-814.04
0.9931,0.0069	-814.90
0.9896,0.0104	-815.66
0.9958,0.0042	-814.34
0.9972,0.0028	-814.04
0.9992,0.0008	-813.61
0.9978,0.0022	-813.91
0.9936,0.0064	-814.80
0.9890,0.0110	-815.79
0.9950,0.0050	-814.50
0.9975,0.0025	-813.97
0.9991,0.0009	-813.63
0.9977,0.0023	-813.93
0.9927,0.0073	-815.00
0.9907,0.0093	-815.43
0.9942,0.0058	-814.68
0.9978,0.0022	-813.91
0.9991,0.0009	-813.65
0.9979,0.0021	-813.89
0.9941,0.0059	-814.69
0.9927,0.0073	-815.00
0.9953,0.0047	-814.45
0.9981,0.0019	-813.86
0.9992,0.0008	-813.62
0.9980,0.0020	-813.88
0.9929,0.0071	-814.95
0.9921,0.0079	-815.12
0.9951,0.0049	-814.49
0.9982,0.0018	-813.84
0.9993,0.0007	-813.61
0.9979,0.0021	-813.90
0.9929,0.0071	-814.96
0.9904,0.0096	-815.48
0.9945,0.0055	-814.62
0.9984,0.0016	-813.79
0.9992,0.0008	-813.62
0.9980,0.0020	-813.87
0.9936,0.0064	-814.81
0.9879,0.0121	-816.01
0.9943,0.0057	-814.65
0.9984,0.0016	-813.79
0.9992,0.0008	-813.62
0.9979,0.0021	-813.90
0.9933,0.0067	-814.87
0.9886,0.0114	-815.86
0.9951,0.0049	-814.47
0.9985,0.0015	-813.77
0.9991,0.0009	-813.64
0.9982,0.0018	-813.84
0.9950,0.0050	-814.50
0.9883,0.0117	-815.94
0.9927,0.0073	-815.00
0.9984,0.0016	-813.79
0.9992,0.0008	-813.62
0.9985,0.0015	-813.77
0.9944,0.0056	-814.64
0.9898,0.0102	-815.61
0.9931,0.0069	-814.91
0.9985,0.0015	-813.77
0.9993,0.0007	-813.61
0.9980,0.0020	-813.88
0.9942,0.0058	-814.66
0.9892,0.0108	-815.75
0.9932,0.0068	-814.88
0.9982,0.0018	-813.84
0.9995,0.0005	-813.56
0.9976,0.0024	-813.97
0.9943,0.0057	-814.65
0.9891,0.0109	-815.75
0.9916,0.0084	-815.22
0.9981,0.0019	-813.85
0.9995,0.0005	-813.55
0.9982,0.0018	-813.82
0.9953,0.0047	-814.45
0.9865,0.0135	-816.31
0.9903,0.0097	-815.51
0.9981,0.0019	-813.84
0.9995,0.0005	-813.56
0.9980,0.0020	-813.87
0.9952,0.0048	-814.47
0.9892,0.0108	-815.73
0.9911,0.0089	-815.34
0.9983,0.0017	-813.81
0.9995,0.0005	-813.56
0.9981,0.0019	-813.85
0.9957,0.0043	-814.36
0.9886,0.0114	-815.86
0.9928,0.0072	-814.97
0.9982,0.0018	-813.83
0.9994,0.0006	-813.57
0.9979,0.0021	-813.89
0.9951,0.0049	-814.48
0.9912,0.0088	-815.31
0.9934,0.0066	-814.83
0.9976,0.0024	-813.95
0.9995,0.0005	-813.57
0.9968,0.0032	-814.12
0.9946,0.0054	-814.58
0.9939,0.0061	-814.74
0.9938,0.0062	-814.75
0.9969,0.0031	-814.10
0.9993,0.0007	-813.59
0.9954,0.0046	-814.41
0.9960,0.0040	-814.30
0.9943,0.0057	-814.65
0.9951,0.0049	-814.48
0.9974,0.0026	-813.99
0.9994,0.0006	-813.58
0.9962,0.0038	-814.24
0.9964,0.0036	-814.21
0.9952,0.0048	-814.47
0.9942,0.0058	-814.68
0.9965,0.0035	-814.18
0.9994,0.0006	-813.57
0.9969,0.0031	-814.11
0.9969,0.0031	-814.10
0.9961,0.0039	-814.27
0.9941,0.0059	-814.68
0.9959,0.0041	-814.32
0.9995,0.0005	-813.56
0.9974,0.0026	-813.99
0.9971,0.0029	-814.05
0.9963,0.0037	-814.22
0.9952,0.0048	-814.46
0.9953,0.0047	-814.44
0.9995,0.0005	-813.56
0.9970,0.0030	-814.09
0.9969,0.0031	-814.09
0.9966,0.0034	-814.17
0.9944,0.0056	-814.63
0.9942,0.0058	-814.68
0.9995,0.0005	-813.57
0.9971,0.0029	-814.06
0.9967,0.0033	-814.14
0.9962,0.0038	-814.24
0.9932,0.0068	-814.88
0.9955,0.0045	-814.39
0.9994,0.0006	-813.57
0.9966,0.0034	-814.16
0.9975,0.0025	-813.97
0.9964,0.0036	-814.21
0.9922,0.0078	-815.09
0.9957,0.0043	-814.35
0.9993,0.0007	-813.60
0.9972,0.0028	-814.04
0.9976,0.0024	-813.97
0.9967,0.0033	-814.14
0.9923,0.0077	-815.07
0.9960,0.0040	-814.29
0.9992,0.0008	-813.62
0.9974,0.0026	-814.00
0.9976,0.0024	-813.95
0.9961,0.0039	-814.28
0.9921,0.0079	-815.13
0.9969,0.0031	-814.09
0.9994,0.0006	-813.57
0.9970,0.0030	-814.08
0.9974,0.0026	-814.00
0.9966,0.0034	-814.16
0.9934,0.0066	-814.83
0.9967,0.0033	-814.15
0.9995,0.0005	-813.56
0.9971,0.0029	-814.07
0.9974,0.0026	-814.00
0.9950,0.0050	-814.49
0.9924,0.0076	-815.06
0.9966,0.0034	-814.17
0.9995,0.0005	-813.55
0.9962,0.0038	-814.26
0.9977,0.0023	-813.93
0.9939,0.0061	-814.73
0.9940,0.0060	-814.72
0.9967,0.0033	-814.14
0.9996,0.0004	-813.55
0.9968,0.0032	-814.12
0.9979,0.0021	-813.89
0.9949,0.0051	-814.51
0.9934,0.0066	-814.84
0.9965,0.0035	-814.19
0.9996,0.0004	-813.55
0.9963,0.0037	-814.22
0.9983,0.0017	-813.80
0.9949,0.0051	-814.52
0.9949,0.0051	-814.52
0.9973,0.0027	-814.03
0.9995,0.0005	-813.55
0.9967,0.0033	-814.14
0.9985,0.0015	-813.76
0.9959,0.0041	-814.32
0.9954,0.0046	-814.42
0.9979,0.0021	-813.89
0.9996,0.0004	-813.55
0.9973,0.0027	-814.02
0.9983,0.0017	-813.81
0.9954,0.0046	-814.43
0.9948,0.0052	-814.55
0.9984,0.0016	-813.80
0.9996,0.0004	-813.54
0.9974,0.0026	-814.00
0.9982,0.0018	-813.83
0.9960,0.0040	-814.30
0.9937,0.0063	-814.79
0.9982,0.0018	-813.83
0.9997,0.0003	-813.52
0.9977,0.0023	-813.94
0.9983,0.0017	-813.82
0.9948,0.0052	-814.54
0.9952,0.0048	-814.47
0.9982,0.0018	-813.82
0.9997,0.0003	-813.52
0.9978,0.0022	-813.91
0.9982,0.0018	-813.82
0.9943,0.0057	-814.65
0.9948,0.0052	-814.55
0.9976,0.0024	-813.96
0.9997,0.0003	-813.51
0.9976,0.0024	-813.95
0.9978,0.0022	-813.91
0.9946,0.0054	-814.58
0.9955,0.0045	-814.40
0.9975,0.0025	-813.97
0.9997,0.0003	-813.52
0.9964,0.0036	-814.20
0.9978,0.0022	-813.91
0.9963,0.0037	-814.24
0.9958,0.0042	-814.33
0.9977,0.0023	-813.94
0.9997,0.0003	-813.52
0.9964,0.0036	-814.21
0.9976,0.0024	-813.96
0.9961,0.0039	-814.26
0.9959,0.0041	-814.32
0.9977,0.0023	-813.94
0.9996,0.0004	-813.54
0.9963,0.0037	-814.22
0.9975,0.0025	-813.97
0.9966,0.0034	-814.16
0.9949,0.0051	-814.52
0.9978,0.0022	-813.92
0.9996,0.0004	-813.53
0.9968,0.0032	-814.12
0.9972,0.0028	-814.04
0.9973,0.0027	-814.02
0.9947,0.0053	-814.56
0.9976,0.0024	-813.95
0.9997,0.0003	-813.52
0.9974,0.0026	-814.00
0.9977,0.0023	-813.94
0.9969,0.0031	-814.11
0.9953,0.0047	-814.44
0.9968,0.0032	-814.13
0.9998,0.0002	-813.51
0.9975,0.0025	-813.99
0.9977,0.0023	-813.93
0.9963,0.0037	-814.23
0.9952,0.0048	-814.46
0.9966,0.0034	-814.16
0.9997,0.0003	-813.51
0.9974,0.0026	-814.00
0.9982,0.0018	-813.82
0.9949,0.0051	-814.54
0.9962,0.0038	-814.25
0.9965,0.0035	-814.19
0.9997,0.0003	-813.52
0.9971,0.0029	-814.06
0.9983,0.0017	-813.81
0.9938,0.0062	-814.76
0.9954,0.0046	-814.42
0.9967,0.0033	-814.14
0.9998,0.0002	-813.50
0.9974,0.0026	-814.01
0.9982,0.0018	-813.83
0.9942,0.0058	-814.68
0.9961,0.0039	-814.28
0.9956,0.0044	-814.38
0.9998,0.0002	-813.49
0.9980,0.0020	-813.88
0.9984,0.0016	-813.79
0.9936,0.0064	-814.81
0.9957,0.0043	-814.37
0.9949,0.0051	-814.53
0.9998,0.0002	-813.50
0.9979,0.0021	-813.90
0.9988,0.0012	-813.70
0.9946,0.0054	-814.59
0.9952,0.0048	-814.46
0.9936,0.0064	-814.80
0.9998,0.0002	-813.50
0.9976,0.0024	-813.97
0.9989,0.0011	-813.69
0.9942,0.0058	-814.67
0.9956,0.0044	-814.38
0.9934,0.0066	-814.83
0.9998,0.0002	-813.50
0.9974,0.0026	-814.00
0.9989,0.0011	-813.69
0.9946,0.0054	-814.59
0.9955,0.0045	-814.40
0.9946,0.0054	-814.58
0.9998,0.0002	-813.51
0.9972,0.0028	-814.05
0.9987,0.0013	-813.72
0.9952,0.0048	-814.47
0.9958,0.0042	-814.34
0.9931,0.0069	-814.90
0.9998,0.0002	-813.49
0.9969,0.0031	-814.11
0.9988,0.0012	-813.71
0.9953,0.0047	-814.44
0.9954,0.0046	-814.41
0.9929,0.0071	-814.95
0.9998,0.0002	-813.49
0.9967,0.0033	-814.14
0.9989,0.0011	-813.68
0.9955,0.0045	-814.39
0.9936,0.0064	-814.80
0.9931,0.0069	-814.92
0.9998,0.0002	-813.49
0.9968,0.0032	-814.12
0.9987,0.0013	-813.73
0.9962,0.0038	-814.24
0.9910,0.0090	-815.36
0.9924,0.0076	-815.05
0.9998,0.0002	-813.50
0.9970,0.0030	-814.08
0.9988,0.0012	-813.71
0.9962,0.0038	-814.26
0.9909,0.0091	-815.37
0.9900,0.0100	-815.56
0.9998,0.0002	-813.50
0.9975,0.0025	-813.99
0.9986,0.0014	-813.74
0.9956,0.0044	-814.39
0.9907,0.0093	-815.41
0.9898,0.0102	-815.61
0.9998,0.0002	-813.49
0.9971,0.0029	-814.07
0.9988,0.0012	-813.70
0.9959,0.0041	-814.31
0.9877,0.0123	-816.07
0.9913,0.0087	-815.29
0.9998,0.0002	-813.50
0.9968,0.0032	-814.13
0.9990,0.0010	-813.67
0.9961,0.0039	-814.26
0.9890,0.0110	-815.78
0.9913,0.0087	-815.29
0.9997,0.0003	-813.51
0.9971,0.0029	-814.06
0.9991,0.0009	-813.64
0.9964,0.0036	-814.21
0.9868,0.0132	-816.24
0.9923,0.0077	-815.08
0.9998,0.0002	-813.50
0.9967,0.0033	-814.14
0.9992,0.0008	-813.61
0.9965,0.0035	-814.18
0.9856,0.0144	-816.52
0.9901,0.0099	-815.55
0.9997,0.0003	-813.51
0.9969,0.0031	-814.10
0.9994,0.0006	-813.57
0.9966,0.0034	-814.17
0.9883,0.0117	-815.93
0.9893,0.0107	-815.73
0.9997,0.0003	-813.51
0.9969,0.0031	-814.11
0.9994,0.0006	-813.59
0.9962,0.0038	-814.26
0.9880,0.0120	-815.99
0.9911,0.0089	-815.34
0.9998,0.0002	-813.50
0.9969,0.0031	-814.10
0.9994,0.0006	-813.59
0.9966,0.0034	-814.17
0.9893,0.0107	-815.72
0.9913,0.0087	-815.29
0.9998,0.0002	-813.50
0.9968,0.0032	-814.12
0.9992,0.0008	-813.62
0.9959,0.0041	-814.32
0.9919,0.0081	-815.17
0.9907,0.0093	-815.41
0.9998,0.0002	-813.50
0.9959,0.0041	-814.32
0.9992,0.0008	-813.62
0.9952,0.0048	-814.46
0.9931,0.0069	-814.91
0.9912,0.0088	-815.31
0.9998,0.0002	-813.50
0.9946,0.0054	-814.59
0.9992,0.0008	-813.62
0.9942,0.0058	-814.68
0.9955,0.0045	-814.40
0.9931,0.0069	-814.90
0.9998,0.0002	-813.49
0.9948,0.0052	-814.54
0.9992,0.0008	-813.62
0.9938,0.0062	-814.76
0.9957,0.0043	-814.36
0.9934,0.0066	-814.84
0.9998,0.0002	-813.49
0.9940,0.0060	-814.72
0.9991,0.0009	-813.64
0.9943,0.0057	-814.65
0.9944,0.0056	-814.62
0.9936,0.0064	-814.79
0.9998,0.0002	-813.49
0.9949,0.0051	-814.53
0.9990,0.0010	-813.66
0.9940,0.0060	-814.71
0.9953,0.0047	-814.44
0.9949,0.0051	-814.54
0.9998,0.0002	-813.50
0.9956,0.0044	-814.38
0.9989,0.0011	-813.68
0.9947,0.0053	-814.56
0.9959,0.0041	-814.32
0.9953,0.0047	-814.45
0.9999,0.0001	-813.48
0.9951,0.0049	-814.49
0.9990,0.0010	-813.66
0.9951,0.0049	-814.49
0.9960,0.0040	-814.28
0.9947,0.0053	-814.56
0.9998,0.0002	-813.49
0.9948,0.0052	-814.55
0.9990,0.0010	-813.66
0.9946,0.0054	-814.60
0.9972,0.0028	-814.04
0.9945,0.0055	-814.61
0.9998,0.0002	-813.49
0.9939,0.0061	-814.73
0.9990,0.0010	-813.65
0.9937,0.0063	-814.78
0.9974,0.0026	-814.00
0.9941,0.0059	-814.69
0.9999,0.0001	-813.48
0.9942,0.0058	-814.68
0.9987,0.0013	-813.72
0.9938,0.0062	-814.76
0.9972,0.0028	-814.04
0.9943,0.0057	-814.65
0.9999,0.0001	-813.48
0.9948,0.0052	-814.55
0.9992,0.0008	-813.62
0.9940,0.0060	-814.72
0.9973,0.0027	-814.02
0.9944,0.0056	-814.63
0.9999,0.0001	-813.48
0.9943,0.0057	-814.65
0.9993,0.0007	-813.61
0.9946,0.0054	-814.59
0.9973,0.0027	-814.03
0.9945,0.0055	-814.61
0.9999,0.0001	-813.48
0.9942,0.0058	-814.66
0.9993,0.0007	-813.59
0.9947,0.0053	-814.57
0.9971,0.0029	-814.06
0.9953,0.0047	-814.45
0.9999,0.0001	-813.48
0.9944,0.0056	-814.64
0.9992,0.0008	-813.61
0.9947,0.0053	-814.56
0.9961,0.0039	-814.27
0.9952,0.0048	-814.45
0.9999,0.0001	-813.49
0.9946,0.0054	-814.59
0.9993,0.0007	-813.60
0.9948,0.0052	-814.55
0.9958,0.0042	-814.34
0.9955,0.0045	-814.40
0.9999,0.0001	-813.48
0.9949,0.0051	-814.53
0.9991,0.0009	-813.63
0.9947,0.0053	-814.57
0.9960,0.0040	-814.29
0.9952,0.0048	-814.45
0.9999,0.0001	-813.48
0.9946,0.0054	-814.59
0.9990,0.0010	-813.66
0.9932,0.0068	-814.89
0.9958,0.0042	-814.34
0.9951,0.0049	-814.48
0.9999,0.0001	-813.48
0.9949,0.0051	-814.53
0.9991,0.0009	-813.64
0.9922,0.0078	-815.11
0.9964,0.0036	-814.22
0.9947,0.0053	-814.56
0.9999,0.0001	-813.48
0.9944,0.0056	-814.62
0.9991,0.0009	-813.65
0.9917,0.0083	-815.21
0.9967,0.0033	-814.15
0.9946,0.0054	-814.59
0.9999,0.0001	-813.49
0.9943,0.0057	-814.65
0.9992,0.0008	-813.62
0.9933,0.0067	-814.86
0.9973,0.0027	-814.02
0.9942,0.0058	-814.68
0.9999,0.0001	-813.48
0.9950,0.0050	-814.50
0.9992,0.0008	-813.62
0.9944,0.0056	-814.64
0.9974,0.0026	-813.99
0.9930,0.0070	-814.93
0.9999,0.0001	-813.48
0.9954,0.0046	-814.43
0.9992,0.0008	-813.63
0.9931,0.0069	-814.91
0.9968,0.0032	-814.12
0.9940,0.0060	-814.71
0.9999,0.0001	-813.48
0.9961,0.0039	-814.26
0.9991,0.0009	-813.64
0.9922,0.0078	-815.09
0.9970,0.0030	-814.07
0.9935,0.0065	-814.83
0.9999,0.0001	-813.48
0.9971,0.0029	-814.06
0.9993,0.0007	-813.60
0.9938,0.0062	-814.75
0.9976,0.0024	-813.95
0.9941,0.0059	-814.70
0.9998,0.0002	-813.49
0.9968,0.0032	-814.12
0.9995,0.0005	-813.56
0.9930,0.0070	-814.93
0.9972,0.0028	-814.04
0.9944,0.0056	-814.64
0.9998,0.0002	-813.49
0.9967,0.0033	-814.14
0.9995,0.0005	-813.56
0.9911,0.0089	-815.33
0.9966,0.0034	-814.17
0.9956,0.0044	-814.38
0.9999,0.0001	-813.49
0.9967,0.0033	-814.14
0.9995,0.0005	-813.56
0.9923,0.0077	-815.09
0.9957,0.0043	-814.35
0.9953,0.0047	-814.43
0.9999,0.0001	-813.48
0.9971,0.0029	-814.07
0.9994,0.0006	-813.58
0.9915,0.0085	-815.24
0.9961,0.0039	-814.27
0.9956,0.0044	-814.38
0.9999,0.0001	-813.47
0.9965,0.0035	-814.18
0.9994,0.0006	-813.59
0.9917,0.0083	-815.21
0.9957,0.0043	-814.36
0.9961,0.0039	-814.27
0.9999,0.0001	-813.47
0.9973,0.0027	-814.02
0.9995,0.0005	-813.56
0.9908,0.0092	-815.39
0.9959,0.0041	-814.31
0.9965,0.0035	-814.18
0.9999,0.0001	-813.47
0.9972,0.0028	-814.04
0.9995,0.0005	-813.57
0.9933,0.0067	-814.86
0.9969,0.0031	-814.11
0.9967,0.0033	-814.14
0.9999,0.0001	-813.47
0.9975,0.0025	-813.98
0.9994,0.0006	-813.57
0.9930,0.0070	-814.92
0.9975,0.0025	-813.98
0.9965,0.0035	-814.19
0.9999,0.0001	-813.47
0.9973,0.0027	-814.02
0.9994,0.0006	-813.59
0.9931,0.0069	-814.91
0.9971,0.0029	-814.07
0.9960,0.0040	-814.30
0.9999,0.0001	-813.48
0.9973,0.0027	-814.01
0.9994,0.0006	-813.58
0.9929,0.0071	-814.94
0.9969,0.0031	-814.10
0.9964,0.0036	-814.21
0.9999,0.0001	-813.48
0.9971,0.0029	-814.06
0.9994,0.0006	-813.58
0.9919,0.0081	-815.17
0.9967,0.0033	-814.14
0.9964,0.0036	-814.21
0.9999,0.0001	-813.47
0.9973,0.0027	-814.02
0.9994,0.0006	-813.58
0.9923,0.0077	-815.08
0.9962,0.0038	-814.25
0.9961,0.0039	-814.27
0.9999,0.0001	-813.48
0.9976,0.0024	-813.96
0.9995,0.0005	-813.57
0.9918,0.0082	-815.17
0.9969,0.0031	-814.11
0.9967,0.0033	-814.14
0.9999,0.0001	-813.47
0.9972,0.0028	-814.04
0.9995,0.0005	-813.56
0.9918,0.0082	-815.17
0.9971,0.0029	-814.07
0.9967,0.0033	-814.15
0.9999,0.0001	-813.47
0.9975,0.0025	-813.99
0.9995,0.0005	-813.56
0.9923,0.0077	-815.07
0.9964,0.0036	-814.22
0.9970,0.0030	-814.08
0.9999,0.0001	-813.47
0.9979,0.0021	-813.90
0.9996,0.0004	-813.54
0.9913,0.0087	-815.28
0.9972,0.0028	-814.05
0.9967,0.0033	-814.15
0.9999,0.0001	-813.47
0.9977,0.0023	-813.94
0.9996,0.0004	-813.53
0.9904,0.0096	-815.49
0.9972,0.0028	-814.03
0.9969,0.0031	-814.10
0.9999,0.0001	-813.47
0.9974,0.0026	-813.99
0.9996,0.0004	-813.53
0.9910,0.0090	-815.35
0.9977,0.0023	-813.93
0.9970,0.0030	-814.08
0.9999,0.0001	-813.48
0.9974,0.0026	-814.00
0.9996,0.0004	-813.55
0.9920,0.0080	-815.15
0.9976,0.0024	-813.95
0.9961,0.0039	-814.28
0.9999,0.0001	-813.47
0.9975,0.0025	-813.98
0.9995,0.0005	-813.55
0.9927,0.0073	-815.00
0.9974,0.0026	-814.00
0.9962,0.0038	-814.26
0.9999,0.0001	-813.47
0.9973,0.0027	-814.02
0.9992,0.0008	-813.62
0.9915,0.0085	-815.24
0.9976,0.0024	-813.96
0.9957,0.0043	-814.35
0.9999,0.0001	-813.47
0.9963,0.0037	-814.23
0.9991,0.0009	-813.65
0.9931,0.0069	-814.91
0.9975,0.0025	-813.98
0.9934,0.0066	-814.84
0.9999,0.0001	-813.47
0.9957,0.0043	-814.35
0.9992,0.0008	-813.63
0.9915,0.0085	-815.24
0.9974,0.0026	-813.99
0.9911,0.0089	-815.34
1.0000,0.0000	-813.46
0.9965,0.0035	-814.18
0.9991,0.0009	-813.63
0.9897,0.0103	-815.63
0.9981,0.0019	-813.86
0.9910,0.0090	-815.35
1.0000,0.0000	-813.46
0.9960,0.0040	-814.30
0.9990,0.0010	-813.65
0.9901,0.0099	-815.54
0.9979,0.0021	-813.88
0.9869,0.0131	-816.24
1.0000,0.0000	-813.46
0.9958,0.0042	-814.34
0.9992,0.0008	-813.63
0.9879,0.0121	-816.01
0.9984,0.0016	-813.80
0.9858,0.0142	-816.46
