#isoforms=['chrX:153285263-153285128:-@chrX:153285049-153284882:-.A.withRI','chrX:153285263-153285128:-@chrX:153285049-153284882:-.B.dn_chrX:153285263-153285128:-@chrX:153285049-153284882:-.B.up']	exon_lens=('chrX:153285263-153285128:-@chrX:153285049-153284882:-.A.withRI',382),('chrX:153285263-153285128:-@chrX:153285049-153284882:-.B.dn',168),('chrX:153285263-153285128:-@chrX:153285049-153284882:-.B.up',136)	iters=5000	burn_in=500	lag=10	percent_accept=76.66	proposal_type=drift	counts=(0,0):2118,(0,1):762,(1,0):288,(1,1):2078	assigned_counts=0:694,1:2434	chrom=chrX	strand=-	mRNA_starts=153284882,153284882	mRNA_ends=153285263,153285263
sampled_psi	log_score
0.1998,0.8002	-2617.53
0.1996,0.8004	-2617.52
0.1843,0.8157	-2617.57
0.1893,0.8107	-2617.31
0.1760,0.8240	-2618.53
0.1995,0.8005	-2617.51
0.2100,0.7900	-2618.64
0.1891,0.8109	-2617.32
0.2090,0.7910	-2618.50
0.1848,0.8152	-2617.53
0.2058,0.7942	-2618.09
0.1984,0.8016	-2617.45
0.1945,0.8055	-2617.30
0.1868,0.8132	-2617.41
0.1903,0.8097	-2617.29
0.2040,0.7960	-2617.89
0.1962,0.8038	-2617.35
0.1759,0.8241	-2618.55
0.2203,0.7797	-2620.60
0.1838,0.8162	-2617.61
0.1787,0.8213	-2618.14
0.1932,0.8068	-2617.28
0.1991,0.8009	-2617.49
0.1942,0.8058	-2617.29
0.2088,0.7912	-2618.47
0.2002,0.7998	-2617.56
0.1809,0.8191	-2617.88
0.2068,0.7932	-2618.21
0.1883,0.8117	-2617.34
0.1977,0.8023	-2617.41
0.2063,0.7937	-2618.15
0.2047,0.7953	-2617.96
0.1816,0.8184	-2617.80
0.1946,0.8054	-2617.30
0.1890,0.8110	-2617.32
0.2015,0.7985	-2617.66
0.1805,0.8195	-2617.92
0.1964,0.8036	-2617.36
0.1901,0.8099	-2617.30
0.1852,0.8148	-2617.50
0.1781,0.8219	-2618.22
0.2018,0.7982	-2617.68
0.2039,0.7961	-2617.88
0.1869,0.8131	-2617.41
0.1843,0.8157	-2617.57
0.1940,0.8060	-2617.29
0.1939,0.8061	-2617.29
0.2001,0.7999	-2617.55
0.1924,0.8076	-2617.28
0.2072,0.7928	-2618.26
0.2112,0.7888	-2618.83
0.1890,0.8110	-2617.32
0.1960,0.8040	-2617.34
0.1941,0.8059	-2617.29
0.1817,0.8183	-2617.80
0.1933,0.8067	-2617.28
0.1983,0.8017	-2617.44
0.1997,0.8003	-2617.52
0.1982,0.8018	-2617.44
0.2023,0.7977	-2617.72
0.1997,0.8003	-2617.53
0.1949,0.8051	-2617.31
0.1837,0.8163	-2617.61
0.2098,0.7902	-2618.62
0.2113,0.7887	-2618.85
0.2050,0.7950	-2618.00
0.2012,0.7988	-2617.64
0.1835,0.8165	-2617.63
0.1803,0.8197	-2617.95
0.1873,0.8127	-2617.39
0.1789,0.8211	-2618.12
0.2008,0.7992	-2617.60
0.1767,0.8233	-2618.43
0.2072,0.7928	-2618.26
0.1930,0.8070	-2617.28
0.1674,0.8326	-2620.31
0.1994,0.8006	-2617.50
0.1905,0.8095	-2617.29
0.1892,0.8108	-2617.32
0.1912,0.8088	-2617.28
0.1770,0.8230	-2618.38
0.1643,0.8357	-2621.14
0.1943,0.8057	-2617.30
0.1937,0.8063	-2617.29
0.1729,0.8271	-2619.08
0.2038,0.7962	-2617.87
0.1826,0.8174	-2617.71
0.1828,0.8172	-2617.69
0.1832,0.8168	-2617.65
0.2049,0.7951	-2617.98
0.1866,0.8134	-2617.42
0.2166,0.7834	-2619.82
0.1803,0.8197	-2617.95
0.1802,0.8198	-2617.96
0.2019,0.7981	-2617.69
0.1956,0.8044	-2617.33
0.1839,0.8161	-2617.59
0.2008,0.7992	-2617.61
0.1988,0.8012	-2617.47
0.1893,0.8107	-2617.32
0.1853,0.8147	-2617.50
0.1785,0.8215	-2618.16
0.1832,0.8168	-2617.65
0.2003,0.7997	-2617.57
0.1855,0.8145	-2617.48
0.1885,0.8115	-2617.34
0.1927,0.8073	-2617.28
0.1932,0.8068	-2617.28
0.1992,0.8008	-2617.50
0.1844,0.8156	-2617.56
0.1868,0.8132	-2617.41
0.1961,0.8039	-2617.34
0.1936,0.8064	-2617.28
0.1945,0.8055	-2617.30
0.1797,0.8203	-2618.02
0.2008,0.7992	-2617.60
0.1543,0.8457	-2624.67
0.1870,0.8130	-2617.40
0.1917,0.8083	-2617.28
0.1899,0.8101	-2617.30
0.1861,0.8139	-2617.45
0.2045,0.7955	-2617.94
0.1788,0.8212	-2618.13
0.1849,0.8151	-2617.52
0.1844,0.8156	-2617.56
0.1944,0.8056	-2617.30
0.1852,0.8148	-2617.50
0.1850,0.8150	-2617.51
0.2083,0.7917	-2618.40
0.1905,0.8095	-2617.29
0.1844,0.8156	-2617.56
0.2060,0.7940	-2618.10
0.1934,0.8066	-2617.28
0.2025,0.7975	-2617.75
0.1981,0.8019	-2617.43
0.1873,0.8127	-2617.39
0.1940,0.8060	-2617.29
0.2005,0.7995	-2617.58
0.1818,0.8182	-2617.79
0.1803,0.8197	-2617.95
0.1906,0.8094	-2617.29
0.2094,0.7906	-2618.56
0.1853,0.8147	-2617.50
0.2082,0.7918	-2618.39
0.2024,0.7976	-2617.74
0.1865,0.8135	-2617.42
0.1929,0.8071	-2617.28
0.1902,0.8098	-2617.29
0.1914,0.8086	-2617.28
0.1929,0.8071	-2617.28
0.1880,0.8120	-2617.36
0.1953,0.8047	-2617.32
0.2135,0.7865	-2619.23
0.1909,0.8091	-2617.28
0.2030,0.7970	-2617.79
0.2012,0.7988	-2617.64
0.2047,0.7953	-2617.97
0.2050,0.7950	-2618.00
0.1993,0.8007	-2617.50
0.1948,0.8052	-2617.31
0.1932,0.8068	-2617.28
0.1901,0.8099	-2617.30
0.1910,0.8090	-2617.28
0.1668,0.8332	-2620.46
0.1957,0.8043	-2617.33
0.2004,0.7996	-2617.57
0.2080,0.7920	-2618.36
0.2045,0.7955	-2617.94
0.1916,0.8084	-2617.28
0.1863,0.8137	-2617.44
0.1808,0.8192	-2617.89
0.1985,0.8015	-2617.45
0.2038,0.7962	-2617.87
0.1788,0.8212	-2618.12
0.1934,0.8066	-2617.28
0.1748,0.8252	-2618.73
0.1883,0.8117	-2617.35
0.1856,0.8144	-2617.48
0.2124,0.7876	-2619.03
0.1839,0.8161	-2617.60
0.1866,0.8134	-2617.42
0.1819,0.8181	-2617.78
0.2070,0.7930	-2618.24
0.1978,0.8022	-2617.42
0.1996,0.8004	-2617.52
0.1819,0.8181	-2617.77
0.1784,0.8216	-2618.18
0.1935,0.8065	-2617.28
0.1907,0.8093	-2617.29
0.1891,0.8109	-2617.32
0.1824,0.8176	-2617.73
0.1774,0.8226	-2618.32
0.1883,0.8117	-2617.35
0.1915,0.8085	-2617.28
0.1974,0.8026	-2617.40
0.1781,0.8219	-2618.22
0.1863,0.8137	-2617.44
0.1962,0.8038	-2617.35
0.1990,0.8010	-2617.48
0.2043,0.7957	-2617.92
0.2000,0.8000	-2617.54
0.2044,0.7956	-2617.93
0.1853,0.8147	-2617.50
0.2062,0.7938	-2618.13
0.1915,0.8085	-2617.28
0.1991,0.8009	-2617.49
0.2064,0.7936	-2618.16
0.1898,0.8102	-2617.30
0.1964,0.8036	-2617.35
0.1973,0.8027	-2617.39
0.2070,0.7930	-2618.24
0.1836,0.8164	-2617.62
0.2029,0.7971	-2617.78
0.1785,0.8215	-2618.16
0.1970,0.8030	-2617.38
0.2055,0.7945	-2618.05
0.1918,0.8082	-2617.28
0.1968,0.8032	-2617.37
0.1798,0.8202	-2618.00
0.2000,0.8000	-2617.55
0.1790,0.8210	-2618.11
0.2032,0.7968	-2617.81
0.1999,0.8001	-2617.54
0.2034,0.7966	-2617.83
0.1838,0.8162	-2617.60
0.1989,0.8011	-2617.47
0.2124,0.7876	-2619.04
0.1789,0.8211	-2618.11
0.1855,0.8145	-2617.48
0.1948,0.8052	-2617.31
0.2051,0.7949	-2618.01
0.2105,0.7895	-2618.72
0.1991,0.8009	-2617.49
0.2022,0.7978	-2617.72
0.1895,0.8105	-2617.31
0.1811,0.8189	-2617.86
0.2028,0.7972	-2617.77
0.1990,0.8010	-2617.48
0.1827,0.8173	-2617.70
0.1962,0.8038	-2617.35
0.2000,0.8000	-2617.55
0.1689,0.8311	-2619.93
0.1911,0.8089	-2617.28
0.2086,0.7914	-2618.44
0.2053,0.7947	-2618.03
0.2048,0.7952	-2617.97
0.1833,0.8167	-2617.64
0.1744,0.8256	-2618.79
0.1821,0.8179	-2617.76
0.1780,0.8220	-2618.23
0.2114,0.7886	-2618.86
0.1986,0.8014	-2617.46
0.1905,0.8095	-2617.29
0.1869,0.8131	-2617.40
0.1896,0.8104	-2617.31
0.1915,0.8085	-2617.28
0.1821,0.8179	-2617.76
0.1698,0.8302	-2619.73
0.1810,0.8190	-2617.86
0.1675,0.8325	-2620.27
0.2237,0.7763	-2621.44
0.1930,0.8070	-2617.28
0.1782,0.8218	-2618.21
0.1955,0.8045	-2617.33
0.1810,0.8190	-2617.87
0.1851,0.8149	-2617.51
0.2145,0.7855	-2619.41
0.2079,0.7921	-2618.35
0.1981,0.8019	-2617.43
0.1789,0.8211	-2618.11
0.1916,0.8084	-2617.28
0.1874,0.8126	-2617.38
0.2115,0.7885	-2618.88
0.1840,0.8160	-2617.59
0.1931,0.8069	-2617.28
0.1796,0.8204	-2618.03
0.1834,0.8166	-2617.64
0.2020,0.7980	-2617.70
0.1866,0.8134	-2617.42
0.1911,0.8089	-2617.28
0.1990,0.8010	-2617.48
0.1881,0.8119	-2617.35
0.1960,0.8040	-2617.34
0.1905,0.8095	-2617.29
0.1914,0.8086	-2617.28
0.1752,0.8248	-2618.66
0.1928,0.8072	-2617.28
0.1768,0.8232	-2618.41
0.1946,0.8054	-2617.30
0.1943,0.8057	-2617.29
0.1892,0.8108	-2617.32
0.2091,0.7909	-2618.51
0.1806,0.8194	-2617.91
0.1799,0.8201	-2617.99
0.1844,0.8156	-2617.56
0.1811,0.8189	-2617.85
0.2068,0.7932	-2618.21
0.2008,0.7992	-2617.61
0.1937,0.8063	-2617.29
0.2067,0.7933	-2618.20
0.1955,0.8045	-2617.32
0.1976,0.8024	-2617.41
0.2102,0.7898	-2618.67
0.1827,0.8173	-2617.70
0.1843,0.8157	-2617.57
0.1872,0.8128	-2617.39
0.1892,0.8108	-2617.32
0.1868,0.8132	-2617.41
0.1909,0.8091	-2617.28
0.1771,0.8229	-2618.37
0.1989,0.8011	-2617.48
0.1780,0.8220	-2618.24
0.1959,0.8041	-2617.34
0.1929,0.8071	-2617.28
0.1938,0.8062	-2617.29
0.2063,0.7937	-2618.14
0.2114,0.7886	-2618.86
0.1889,0.8111	-2617.32
0.1749,0.8251	-2618.72
0.1745,0.8255	-2618.79
0.2142,0.7858	-2619.34
0.2113,0.7887	-2618.86
0.1950,0.8050	-2617.31
0.2032,0.7968	-2617.81
0.1758,0.8242	-2618.57
0.1899,0.8101	-2617.30
0.1970,0.8030	-2617.38
0.1937,0.8063	-2617.29
0.1926,0.8074	-2617.28
0.1729,0.8271	-2619.07
0.1862,0.8138	-2617.44
0.2012,0.7988	-2617.64
0.1970,0.8030	-2617.38
0.1886,0.8114	-2617.34
0.1950,0.8050	-2617.31
0.1725,0.8275	-2619.15
0.2050,0.7950	-2618.00
0.2025,0.7975	-2617.74
0.1996,0.8004	-2617.52
0.1885,0.8115	-2617.34
0.1830,0.8170	-2617.67
0.1842,0.8158	-2617.57
0.2074,0.7926	-2618.29
0.2059,0.7941	-2618.09
0.1767,0.8233	-2618.43
0.1866,0.8134	-2617.42
0.1994,0.8006	-2617.51
0.1907,0.8093	-2617.29
0.1926,0.8074	-2617.28
0.1882,0.8118	-2617.35
0.1978,0.8022	-2617.41
0.1845,0.8155	-2617.55
0.1780,0.8220	-2618.23
0.2068,0.7932	-2618.21
0.1996,0.8004	-2617.52
0.1909,0.8091	-2617.28
0.1929,0.8071	-2617.28
0.2159,0.7841	-2619.67
0.1974,0.8026	-2617.40
0.1981,0.8019	-2617.43
0.1966,0.8034	-2617.36
0.2029,0.7971	-2617.79
0.2048,0.7952	-2617.98
0.1999,0.8001	-2617.54
0.2078,0.7922	-2618.34
0.1952,0.8048	-2617.32
0.1904,0.8096	-2617.29
0.2067,0.7933	-2618.20
0.1920,0.8080	-2617.28
0.2019,0.7981	-2617.69
0.1974,0.8026	-2617.40
0.2005,0.7995	-2617.58
0.1999,0.8001	-2617.54
0.2109,0.7891	-2618.79
0.1974,0.8026	-2617.40
0.2006,0.7994	-2617.59
0.1960,0.8040	-2617.34
0.1874,0.8126	-2617.38
0.2027,0.7973	-2617.76
0.2092,0.7908	-2618.53
0.1806,0.8194	-2617.91
0.1873,0.8127	-2617.39
0.2073,0.7927	-2618.27
0.1953,0.8047	-2617.32
0.2023,0.7977	-2617.72
0.1893,0.8107	-2617.31
0.1851,0.8149	-2617.51
0.1985,0.8015	-2617.45
0.2063,0.7937	-2618.15
0.1935,0.8065	-2617.28
0.1917,0.8083	-2617.28
0.1911,0.8089	-2617.28
0.1916,0.8084	-2617.28
0.1994,0.8006	-2617.51
0.1879,0.8121	-2617.36
0.1920,0.8080	-2617.28
0.1838,0.8162	-2617.60
0.1780,0.8220	-2618.23
0.1991,0.8009	-2617.49
0.1982,0.8018	-2617.44
0.1929,0.8071	-2617.28
0.2221,0.7779	-2621.04
0.1818,0.8182	-2617.78
0.1963,0.8037	-2617.35
0.1889,0.8111	-2617.32
0.2039,0.7961	-2617.88
0.1966,0.8034	-2617.36
0.2122,0.7878	-2619.00
0.1844,0.8156	-2617.56
0.2143,0.7857	-2619.37
0.1840,0.8160	-2617.59
0.1863,0.8137	-2617.44
0.1782,0.8218	-2618.21
0.2039,0.7961	-2617.88
0.1903,0.8097	-2617.29
0.1849,0.8151	-2617.52
0.1897,0.8103	-2617.31
0.1797,0.8203	-2618.02
0.1980,0.8020	-2617.42
0.1800,0.8200	-2617.98
0.1820,0.8180	-2617.77
0.1913,0.8087	-2617.28
0.1839,0.8161	-2617.60
0.1949,0.8051	-2617.31
0.1884,0.8116	-2617.34
0.1976,0.8024	-2617.41
0.2185,0.7815	-2620.21
0.1922,0.8078	-2617.28
0.1956,0.8044	-2617.33
0.2050,0.7950	-2617.99
0.2031,0.7969	-2617.80
0.2035,0.7965	-2617.83
0.2058,0.7942	-2618.08
0.2244,0.7756	-2621.62
0.2053,0.7947	-2618.03
0.1963,0.8037	-2617.35
0.2034,0.7966	-2617.82
0.1856,0.8144	-2617.48
0.1932,0.8068	-2617.28
0.2205,0.7795	-2620.67
0.2100,0.7900	-2618.64
0.1944,0.8056	-2617.30
0.2002,0.7998	-2617.56
0.2016,0.7984	-2617.67
0.1717,0.8283	-2619.32
0.2194,0.7806	-2620.41
0.1959,0.8041	-2617.34
0.1865,0.8135	-2617.43
0.1923,0.8077	-2617.28
0.1973,0.8027	-2617.39
0.1771,0.8229	-2618.36
0.2102,0.7898	-2618.68
0.2026,0.7974	-2617.75
0.1943,0.8057	-2617.30
0.1764,0.8236	-2618.47
0.1749,0.8251	-2618.71
0.1883,0.8117	-2617.34
0.1875,0.8125	-2617.38
0.1796,0.8204	-2618.02
0.2093,0.7907	-2618.54
0.1891,0.8109	-2617.32
0.2116,0.7884	-2618.90
0.1960,0.8040	-2617.34
0.2067,0.7933	-2618.19
0.1951,0.8049	-2617.31
0.2042,0.7958	-2617.91
0.1860,0.8140	-2617.45
0.2036,0.7964	-2617.85
0.1872,0.8128	-2617.39
0.2298,0.7702	-2623.10
0.2092,0.7908	-2618.54
0.1925,0.8075	-2617.28
0.1694,0.8306	-2619.82
0.1865,0.8135	-2617.42
0.1818,0.8182	-2617.78
0.2126,0.7874	-2619.07
0.1765,0.8235	-2618.45
0.2069,0.7931	-2618.22
0.2044,0.7956	-2617.93
0.1811,0.8189	-2617.85
0.1885,0.8115	-2617.34
0.1836,0.8164	-2617.62
0.1956,0.8044	-2617.33
0.2056,0.7944	-2618.07
0.1846,0.8154	-2617.54
0.1692,0.8308	-2619.87
0.1824,0.8176	-2617.72
0.2027,0.7973	-2617.77
0.1931,0.8069	-2617.28
0.1896,0.8104	-2617.31
0.1880,0.8120	-2617.36
0.1922,0.8078	-2617.28
0.2133,0.7867	-2619.18
0.1926,0.8074	-2617.28
0.2103,0.7897	-2618.69
0.1896,0.8104	-2617.31
0.1851,0.8149	-2617.51
0.2131,0.7869	-2619.15
0.1940,0.8060	-2617.29
0.1953,0.8047	-2617.32
0.2106,0.7894	-2618.74
0.2092,0.7908	-2618.54
0.1796,0.8204	-2618.03
0.1901,0.8099	-2617.30
0.1916,0.8084	-2617.28
0.2080,0.7920	-2618.36
0.1737,0.8263	-2618.92
0.2060,0.7940	-2618.10
0.1974,0.8026	-2617.40
0.1987,0.8013	-2617.46
0.1818,0.8182	-2617.78
0.1974,0.8026	-2617.39
0.1745,0.8255	-2618.78
0.2054,0.7946	-2618.04
0.1988,0.8012	-2617.47
0.1905,0.8095	-2617.29
0.1761,0.8239	-2618.51
0.2031,0.7969	-2617.80
0.1932,0.8068	-2617.28
0.2027,0.7973	-2617.76
0.1836,0.8164	-2617.62
0.1907,0.8093	-2617.29
0.1916,0.8084	-2617.28
0.1967,0.8033	-2617.36
0.2071,0.7929	-2618.25
0.2054,0.7946	-2618.04
0.1811,0.8189	-2617.85
0.1937,0.8063	-2617.29
0.1957,0.8043	-2617.33
0.1727,0.8273	-2619.12
0.2319,0.7681	-2623.75
0.1929,0.8071	-2617.28
0.1827,0.8173	-2617.70
0.1934,0.8066	-2617.28
0.2005,0.7995	-2617.58
0.1941,0.8059	-2617.29
0.1989,0.8011	-2617.48
0.1964,0.8036	-2617.36
0.1978,0.8022	-2617.42
0.1841,0.8159	-2617.58
0.1978,0.8022	-2617.42
0.1823,0.8177	-2617.73
0.2075,0.7925	-2618.30
0.1936,0.8064	-2617.28
0.2044,0.7956	-2617.93
0.1815,0.8185	-2617.81
0.2095,0.7905	-2618.58
0.1787,0.8213	-2618.15
0.1865,0.8135	-2617.43
0.1888,0.8112	-2617.33
0.2074,0.7926	-2618.29
0.2079,0.7921	-2618.35
0.1765,0.8235	-2618.45
0.1838,0.8162	-2617.61
0.1912,0.8088	-2617.28
0.1980,0.8020	-2617.43
0.1909,0.8091	-2617.28
0.1822,0.8178	-2617.74
0.1970,0.8030	-2617.38
0.1925,0.8075	-2617.28
0.1890,0.8110	-2617.32
0.1883,0.8117	-2617.35
0.1866,0.8134	-2617.42
0.1837,0.8163	-2617.62
0.1963,0.8037	-2617.35
0.1885,0.8115	-2617.34
0.1810,0.8190	-2617.86
0.1867,0.8133	-2617.42
0.2043,0.7957	-2617.92
0.1919,0.8081	-2617.28
0.1998,0.8002	-2617.53
0.1968,0.8032	-2617.37
0.1747,0.8253	-2618.75
0.2115,0.7885	-2618.89
0.1861,0.8139	-2617.45
0.2018,0.7982	-2617.68
0.1811,0.8189	-2617.86
0.1908,0.8092	-2617.28
0.2028,0.7972	-2617.77
0.1993,0.8007	-2617.50
0.1792,0.8208	-2618.08
0.1815,0.8185	-2617.82
0.1777,0.8223	-2618.27
0.1904,0.8096	-2617.29
0.1777,0.8223	-2618.28
0.2015,0.7985	-2617.66
0.1836,0.8164	-2617.62
0.1842,0.8158	-2617.57
0.1861,0.8139	-2617.45
0.1803,0.8197	-2617.94
0.1932,0.8068	-2617.28
0.1982,0.8018	-2617.44
0.1962,0.8038	-2617.35
0.1984,0.8016	-2617.45
0.2007,0.7993	-2617.60
0.1814,0.8186	-2617.82
0.1958,0.8042	-2617.33
0.1895,0.8105	-2617.31
0.1830,0.8170	-2617.67
0.1911,0.8089	-2617.28
0.1981,0.8019	-2617.43
0.1945,0.8055	-2617.30
0.1829,0.8171	-2617.68
0.1873,0.8127	-2617.39
0.1853,0.8147	-2617.50
0.2066,0.7934	-2618.18
0.1933,0.8067	-2617.28
0.1873,0.8127	-2617.39
0.1875,0.8125	-2617.38
0.1770,0.8230	-2618.38
0.1874,0.8126	-2617.38
0.2000,0.8000	-2617.55
0.1795,0.8205	-2618.04
0.1986,0.8014	-2617.46
0.1950,0.8050	-2617.31
0.1970,0.8030	-2617.38
0.1884,0.8116	-2617.34
0.1990,0.8010	-2617.48
0.1843,0.8157	-2617.57
0.1818,0.8182	-2617.78
0.1942,0.8058	-2617.29
0.1768,0.8232	-2618.40
0.1924,0.8076	-2617.28
0.2051,0.7949	-2618.00
0.1892,0.8108	-2617.32
0.1865,0.8135	-2617.43
0.1953,0.8047	-2617.32
0.1940,0.8060	-2617.29
0.1966,0.8034	-2617.36
0.1875,0.8125	-2617.38
0.1879,0.8121	-2617.36
0.1970,0.8030	-2617.38
0.1814,0.8186	-2617.82
0.1910,0.8090	-2617.28
0.1931,0.8069	-2617.28
0.2035,0.7965	-2617.84
0.1981,0.8019	-2617.43
0.2018,0.7982	-2617.69
0.1896,0.8104	-2617.31
0.2013,0.7987	-2617.65
0.1880,0.8120	-2617.36
0.1872,0.8128	-2617.39
0.1980,0.8020	-2617.43
0.1860,0.8140	-2617.46
0.1897,0.8103	-2617.30
0.2139,0.7861	-2619.30
0.1879,0.8121	-2617.36
0.2084,0.7916	-2618.42
0.2016,0.7984	-2617.67
0.2076,0.7924	-2618.31
0.1978,0.8022	-2617.42
0.2036,0.7964	-2617.85
0.1992,0.8008	-2617.50
0.1920,0.8080	-2617.28
0.1839,0.8161	-2617.60
0.1987,0.8013	-2617.46
0.1750,0.8250	-2618.70
0.1839,0.8161	-2617.60
0.1952,0.8048	-2617.32
0.2009,0.7991	-2617.61
0.1939,0.8061	-2617.29
0.2072,0.7928	-2618.26
0.1842,0.8158	-2617.58
0.1898,0.8102	-2617.30
0.1829,0.8171	-2617.68
0.1982,0.8018	-2617.44
0.1743,0.8257	-2618.81
0.1779,0.8221	-2618.25
0.1862,0.8138	-2617.45
0.1817,0.8183	-2617.80
0.1907,0.8093	-2617.29
0.1934,0.8066	-2617.28
0.1985,0.8015	-2617.45
0.2063,0.7937	-2618.15
0.1788,0.8212	-2618.12
0.1859,0.8141	-2617.46
0.2016,0.7984	-2617.66
0.1938,0.8062	-2617.29
0.1917,0.8083	-2617.28
0.2152,0.7848	-2619.54
0.2000,0.8000	-2617.54
0.1850,0.8150	-2617.52
0.1857,0.8143	-2617.47
0.1826,0.8174	-2617.71
0.1881,0.8119	-2617.35
0.2047,0.7953	-2617.97
0.1995,0.8005	-2617.51
0.1916,0.8084	-2617.28
0.1864,0.8136	-2617.43
0.1914,0.8086	-2617.28
0.1875,0.8125	-2617.38
0.2090,0.7910	-2618.50
0.1998,0.8002	-2617.53
0.1991,0.8009	-2617.49
0.1816,0.8184	-2617.80
0.2013,0.7987	-2617.65
0.1988,0.8012	-2617.47
0.1924,0.8076	-2617.28
0.1965,0.8035	-2617.36
0.1836,0.8164	-2617.63
0.1779,0.8221	-2618.25
0.1965,0.8035	-2617.36
0.1856,0.8144	-2617.48
0.2146,0.7854	-2619.42
0.1981,0.8019	-2617.43
0.2091,0.7909	-2618.52
0.1944,0.8056	-2617.30
0.1852,0.8148	-2617.50
0.1867,0.8133	-2617.41
0.1896,0.8104	-2617.31
0.1960,0.8040	-2617.34
0.1975,0.8025	-2617.40
0.1739,0.8261	-2618.89
0.1796,0.8204	-2618.03
0.1946,0.8054	-2617.30
0.2035,0.7965	-2617.84
0.1859,0.8141	-2617.46
0.1890,0.8110	-2617.32
0.1825,0.8175	-2617.72
0.1919,0.8081	-2617.28
0.2004,0.7996	-2617.57
0.1922,0.8078	-2617.28
0.2018,0.7982	-2617.68
0.2101,0.7899	-2618.66
0.2005,0.7995	-2617.58
0.1797,0.8203	-2618.01
0.2034,0.7966	-2617.83
0.2085,0.7915	-2618.43
0.1794,0.8206	-2618.06
0.2071,0.7929	-2618.25
0.1974,0.8026	-2617.40
0.1947,0.8053	-2617.30
0.2129,0.7871	-2619.12
0.1966,0.8034	-2617.36
0.1996,0.8004	-2617.52
0.1980,0.8020	-2617.43
0.1940,0.8060	-2617.29
0.2002,0.7998	-2617.56
0.1926,0.8074	-2617.28
0.1820,0.8180	-2617.77
0.1965,0.8035	-2617.36
0.2113,0.7887	-2618.85
0.2006,0.7994	-2617.59
0.1906,0.8094	-2617.29
0.2081,0.7919	-2618.38
0.1821,0.8179	-2617.76
0.1906,0.8094	-2617.29
0.1773,0.8227	-2618.33
0.1871,0.8129	-2617.40
0.1861,0.8139	-2617.45
0.1892,0.8108	-2617.32
0.1831,0.8169	-2617.67
0.1933,0.8067	-2617.28
0.2047,0.7953	-2617.96
0.1899,0.8101	-2617.30
0.1859,0.8141	-2617.46
0.1863,0.8137	-2617.44
0.1922,0.8078	-2617.28
0.2003,0.7997	-2617.57
0.1747,0.8253	-2618.75
0.1949,0.8051	-2617.31
0.1807,0.8193	-2617.90
0.1867,0.8133	-2617.42
0.2036,0.7964	-2617.85
0.1880,0.8120	-2617.36
0.1916,0.8084	-2617.28
0.1874,0.8126	-2617.38
0.1948,0.8052	-2617.31
0.1802,0.8198	-2617.96
0.1860,0.8140	-2617.45
0.1794,0.8206	-2618.05
0.2007,0.7993	-2617.59
0.1837,0.8163	-2617.61
0.1965,0.8035	-2617.36
0.1779,0.8221	-2618.26
0.1917,0.8083	-2617.28
0.1905,0.8095	-2617.29
0.1908,0.8092	-2617.28
0.1784,0.8216	-2618.18
0.1769,0.8231	-2618.39
0.1933,0.8067	-2617.28
0.1861,0.8139	-2617.45
0.1791,0.8209	-2618.09
0.1997,0.8003	-2617.53
0.2021,0.7979	-2617.71
0.1893,0.8107	-2617.32
0.1818,0.8182	-2617.78
0.1991,0.8009	-2617.49
0.1736,0.8264	-2618.94
0.1808,0.8192	-2617.89
0.1914,0.8086	-2617.28
0.2014,0.7986	-2617.65
0.1876,0.8124	-2617.37
0.1926,0.8074	-2617.28
0.2043,0.7957	-2617.92
0.1931,0.8069	-2617.28
0.1893,0.8107	-2617.31
0.1803,0.8197	-2617.95
0.1974,0.8026	-2617.40
0.2083,0.7917	-2618.41
0.1841,0.8159	-2617.58
0.2068,0.7932	-2618.20
0.1880,0.8120	-2617.36
0.1789,0.8211	-2618.12
0.2048,0.7952	-2617.98
0.1859,0.8141	-2617.46
0.1882,0.8118	-2617.35
0.1804,0.8196	-2617.93
0.1940,0.8060	-2617.29
0.1867,0.8133	-2617.41
0.1970,0.8030	-2617.38
0.1771,0.8229	-2618.37
0.1911,0.8089	-2617.28
0.1749,0.8251	-2618.72
0.2103,0.7897	-2618.69
0.1881,0.8119	-2617.35
0.2109,0.7891	-2618.79
0.1743,0.8257	-2618.82
0.1960,0.8040	-2617.34
0.1871,0.8129	-2617.40
0.1973,0.8027	-2617.39
0.1777,0.8223	-2618.27
0.1923,0.8077	-2617.28
0.1906,0.8094	-2617.29
0.1989,0.8011	-2617.47
0.2236,0.7764	-2621.40
0.1937,0.8063	-2617.29
0.1894,0.8106	-2617.31
0.2154,0.7846	-2619.58
0.1961,0.8039	-2617.34
0.1938,0.8062	-2617.29
0.2244,0.7756	-2621.60
0.1840,0.8160	-2617.59
0.1874,0.8126	-2617.38
0.1874,0.8126	-2617.38
0.1976,0.8024	-2617.41
0.2003,0.7997	-2617.57
0.2189,0.7811	-2620.29
0.1861,0.8139	-2617.45
0.1963,0.8037	-2617.35
0.1979,0.8021	-2617.42
0.1897,0.8103	-2617.30
0.2077,0.7923	-2618.32
0.2159,0.7841	-2619.68
0.1777,0.8223	-2618.27
0.1884,0.8116	-2617.34
0.1841,0.8159	-2617.58
0.1922,0.8078	-2617.28
0.1761,0.8239	-2618.52
0.1793,0.8207	-2618.06
0.1993,0.8007	-2617.50
0.1963,0.8037	-2617.35
0.1877,0.8123	-2617.37
0.1977,0.8023	-2617.41
0.1948,0.8052	-2617.31
0.1965,0.8035	-2617.36
0.1915,0.8085	-2617.28
0.2216,0.7784	-2620.92
0.1993,0.8007	-2617.50
0.1960,0.8040	-2617.34
0.2043,0.7957	-2617.92
0.1971,0.8029	-2617.38
0.1841,0.8159	-2617.58
0.1994,0.8006	-2617.51
0.1840,0.8160	-2617.59
0.2112,0.7888	-2618.83
0.1970,0.8030	-2617.38
0.1757,0.8243	-2618.58
0.1849,0.8151	-2617.53
0.1987,0.8013	-2617.47
0.2089,0.7911	-2618.48
0.2029,0.7971	-2617.78
0.2125,0.7875	-2619.05
0.1944,0.8056	-2617.30
0.2014,0.7986	-2617.65
0.2002,0.7998	-2617.56
0.2024,0.7976	-2617.74
0.1887,0.8113	-2617.33
0.1887,0.8113	-2617.33
0.2009,0.7991	-2617.61
0.1779,0.8221	-2618.25
0.1747,0.8253	-2618.75
0.2030,0.7970	-2617.79
0.1963,0.8037	-2617.35
0.1855,0.8145	-2617.48
0.1970,0.8030	-2617.38
0.1810,0.8190	-2617.87
0.1833,0.8167	-2617.65
0.1968,0.8032	-2617.37
0.1961,0.8039	-2617.34
0.1918,0.8082	-2617.28
0.2080,0.7920	-2618.36
0.1989,0.8011	-2617.48
0.2001,0.7999	-2617.55
0.1818,0.8182	-2617.78
0.1765,0.8235	-2618.46
0.1958,0.8042	-2617.33
0.1944,0.8056	-2617.30
0.1670,0.8330	-2620.40
0.1995,0.8005	-2617.51
0.1907,0.8093	-2617.29
0.1978,0.8022	-2617.42
0.2011,0.7989	-2617.63
0.1850,0.8150	-2617.52
0.1836,0.8164	-2617.62
0.1816,0.8184	-2617.80
0.1843,0.8157	-2617.57
0.1953,0.8047	-2617.32
0.1944,0.8056	-2617.30
0.1929,0.8071	-2617.28
0.1917,0.8083	-2617.28
0.1857,0.8143	-2617.47
0.2029,0.7971	-2617.78
0.1977,0.8023	-2617.41
0.2066,0.7934	-2618.19
0.1980,0.8020	-2617.43
0.1915,0.8085	-2617.28
0.1785,0.8215	-2618.17
0.1887,0.8113	-2617.33
0.1883,0.8117	-2617.35
0.1895,0.8105	-2617.31
0.2086,0.7914	-2618.44
0.1891,0.8109	-2617.32
0.1912,0.8088	-2617.28
0.1852,0.8148	-2617.50
0.2077,0.7923	-2618.32
0.2009,0.7991	-2617.61
0.1935,0.8065	-2617.28
0.1743,0.8257	-2618.81
0.1919,0.8081	-2617.28
0.1952,0.8048	-2617.32
0.1975,0.8025	-2617.40
0.2020,0.7980	-2617.70
0.1970,0.8030	-2617.38
0.1817,0.8183	-2617.79
0.1764,0.8236	-2618.46
0.2084,0.7916	-2618.42
0.1943,0.8057	-2617.30
0.1999,0.8001	-2617.54
0.1915,0.8085	-2617.28
0.1876,0.8124	-2617.37
0.1897,0.8103	-2617.31
0.2008,0.7992	-2617.60
0.2037,0.7963	-2617.86
0.1950,0.8050	-2617.31
0.2081,0.7919	-2618.38
0.1855,0.8145	-2617.48
0.1855,0.8145	-2617.48
0.1998,0.8002	-2617.53
0.1918,0.8082	-2617.28
0.1848,0.8152	-2617.53
0.1918,0.8082	-2617.28
0.1901,0.8099	-2617.30
0.1757,0.8243	-2618.57
0.1958,0.8042	-2617.33
0.1892,0.8108	-2617.32
0.1790,0.8210	-2618.10
0.1790,0.8210	-2618.10
0.1996,0.8004	-2617.52
0.1906,0.8094	-2617.29
0.1983,0.8017	-2617.44
0.1722,0.8278	-2619.20
0.2004,0.7996	-2617.58
0.2065,0.7935	-2618.17
0.1944,0.8056	-2617.30
0.1988,0.8012	-2617.47
0.1874,0.8126	-2617.38
0.1831,0.8169	-2617.66
0.1958,0.8042	-2617.33
0.1980,0.8020	-2617.43
0.2109,0.7891	-2618.78
0.1849,0.8151	-2617.52
0.1859,0.8141	-2617.46
0.1865,0.8135	-2617.43
0.1938,0.8062	-2617.29
0.1931,0.8069	-2617.28
0.1843,0.8157	-2617.56
0.1913,0.8087	-2617.28
0.1816,0.8184	-2617.80
0.1822,0.8178	-2617.74
0.1915,0.8085	-2617.28
0.1891,0.8109	-2617.32
0.1861,0.8139	-2617.45
0.1859,0.8141	-2617.46
0.1799,0.8201	-2617.99
0.1888,0.8112	-2617.33
0.1888,0.8112	-2617.33
0.1988,0.8012	-2617.47
0.1849,0.8151	-2617.52
0.1923,0.8077	-2617.28
0.1955,0.8045	-2617.32
0.1831,0.8169	-2617.66
0.1937,0.8063	-2617.28
0.1800,0.8200	-2617.98
0.1802,0.8198	-2617.96
0.1991,0.8009	-2617.49
0.2015,0.7985	-2617.66
0.1904,0.8096	-2617.29
0.1833,0.8167	-2617.64
0.1872,0.8128	-2617.39
0.1876,0.8124	-2617.37
0.1766,0.8234	-2618.43
0.2041,0.7959	-2617.89
0.1801,0.8199	-2617.96
0.1936,0.8064	-2617.28
0.2032,0.7968	-2617.81
0.1970,0.8030	-2617.38
0.1812,0.8188	-2617.85
0.1846,0.8154	-2617.55
0.1807,0.8193	-2617.90
0.1993,0.8007	-2617.50
0.1829,0.8171	-2617.69
0.1980,0.8020	-2617.42
0.1841,0.8159	-2617.59
0.1975,0.8025	-2617.40
0.2096,0.7904	-2618.59
0.2159,0.7841	-2619.67
0.1748,0.8252	-2618.73
0.1937,0.8063	-2617.29
0.1725,0.8275	-2619.15
0.1849,0.8151	-2617.52
0.1846,0.8154	-2617.54
0.2056,0.7944	-2618.06
0.1893,0.8107	-2617.31
0.1731,0.8269	-2619.03
0.1823,0.8177	-2617.73
0.1871,0.8129	-2617.40
0.1903,0.8097	-2617.29
0.2155,0.7845	-2619.60
0.1843,0.8157	-2617.57
0.1911,0.8089	-2617.28
0.1939,0.8061	-2617.29
0.2065,0.7935	-2618.17
0.2060,0.7940	-2618.11
0.2126,0.7874	-2619.07
0.2136,0.7864	-2619.25
0.1801,0.8199	-2617.97
0.1965,0.8035	-2617.36
0.2014,0.7986	-2617.65
0.2082,0.7918	-2618.39
0.1973,0.8027	-2617.39
0.1854,0.8146	-2617.49
0.1915,0.8085	-2617.28
0.1879,0.8121	-2617.36
0.1795,0.8205	-2618.03
0.1991,0.8009	-2617.48
0.1978,0.8022	-2617.41
0.1960,0.8040	-2617.34
0.1973,0.8027	-2617.39
0.1864,0.8136	-2617.43
0.1807,0.8193	-2617.90
0.1962,0.8038	-2617.35
0.1832,0.8168	-2617.66
0.1933,0.8067	-2617.28
0.1832,0.8168	-2617.65
0.1831,0.8169	-2617.66
0.1788,0.8212	-2618.13
0.1895,0.8105	-2617.31
0.1867,0.8133	-2617.42
0.1919,0.8081	-2617.28
0.1891,0.8109	-2617.32
0.1845,0.8155	-2617.55
0.1803,0.8197	-2617.94
0.1691,0.8309	-2619.89
0.1853,0.8147	-2617.50
0.1854,0.8146	-2617.49
0.1989,0.8011	-2617.47
0.1998,0.8002	-2617.53
0.1998,0.8002	-2617.53
0.1872,0.8128	-2617.39
0.1982,0.8018	-2617.44
0.1666,0.8334	-2620.50
0.1905,0.8095	-2617.29
0.1982,0.8018	-2617.44
0.1884,0.8116	-2617.34
0.1794,0.8206	-2618.05
0.1824,0.8176	-2617.73
0.1888,0.8112	-2617.33
0.1829,0.8171	-2617.68
0.1842,0.8158	-2617.57
0.1888,0.8112	-2617.33
0.1878,0.8122	-2617.36
0.1781,0.8219	-2618.23
0.1873,0.8127	-2617.39
0.1859,0.8141	-2617.46
0.1951,0.8049	-2617.31
0.2000,0.8000	-2617.55
0.2008,0.7992	-2617.60
0.1825,0.8175	-2617.72
0.1855,0.8145	-2617.48
0.1986,0.8014	-2617.46
0.1810,0.8190	-2617.87
0.2060,0.7940	-2618.11
0.1893,0.8107	-2617.32
0.1864,0.8136	-2617.43
0.1896,0.8104	-2617.31
0.1941,0.8059	-2617.29
0.2023,0.7977	-2617.73
0.1910,0.8090	-2617.28
0.1895,0.8105	-2617.31
0.1948,0.8052	-2617.31
0.1779,0.8221	-2618.25
0.1992,0.8008	-2617.49
0.1680,0.8320	-2620.16
0.1924,0.8076	-2617.28
0.1837,0.8163	-2617.62
0.2036,0.7964	-2617.85
0.2064,0.7936	-2618.16
0.2102,0.7898	-2618.69
0.1882,0.8118	-2617.35
0.1899,0.8101	-2617.30
0.1870,0.8130	-2617.40
0.1935,0.8065	-2617.28
0.2035,0.7965	-2617.84
0.1822,0.8178	-2617.75
0.1927,0.8073	-2617.28
0.1792,0.8208	-2618.07
0.1872,0.8128	-2617.39
0.1976,0.8024	-2617.41
0.1963,0.8037	-2617.35
0.1992,0.8008	-2617.49
0.1886,0.8114	-2617.33
0.1979,0.8021	-2617.42
0.1956,0.8044	-2617.33
0.2012,0.7988	-2617.64
0.1925,0.8075	-2617.28
0.2031,0.7969	-2617.80
0.1867,0.8133	-2617.41
0.1871,0.8129	-2617.40
0.2168,0.7832	-2619.85
0.1971,0.8029	-2617.38
0.1880,0.8120	-2617.36
0.1807,0.8193	-2617.90
0.2015,0.7985	-2617.66
0.1872,0.8128	-2617.39
0.1776,0.8224	-2618.29
0.1905,0.8095	-2617.29
0.1986,0.8014	-2617.46
0.1834,0.8166	-2617.64
0.2041,0.7959	-2617.90
0.1707,0.8293	-2619.53
0.1847,0.8153	-2617.53
0.1926,0.8074	-2617.28
0.1945,0.8055	-2617.30
0.1928,0.8072	-2617.28
0.1936,0.8064	-2617.28
0.1713,0.8287	-2619.39
0.1980,0.8020	-2617.43
0.1943,0.8057	-2617.29
0.1960,0.8040	-2617.34
0.1916,0.8084	-2617.28
0.2043,0.7957	-2617.92
0.1871,0.8129	-2617.40
0.1865,0.8135	-2617.43
0.1853,0.8147	-2617.50
0.1945,0.8055	-2617.30
0.1898,0.8102	-2617.30
0.2133,0.7867	-2619.19
0.1933,0.8067	-2617.28
0.1884,0.8116	-2617.34
0.1911,0.8089	-2617.28
0.1993,0.8007	-2617.50
0.1902,0.8098	-2617.29
0.2183,0.7817	-2620.17
0.1904,0.8096	-2617.29
0.2070,0.7930	-2618.23
0.1980,0.8020	-2617.43
0.2001,0.7999	-2617.55
0.2062,0.7938	-2618.13
0.2009,0.7991	-2617.61
0.1997,0.8003	-2617.53
0.1916,0.8084	-2617.28
0.1834,0.8166	-2617.64
0.1870,0.8130	-2617.40
0.2061,0.7939	-2618.12
0.1978,0.8022	-2617.42
0.1935,0.8065	-2617.28
0.1766,0.8234	-2618.43
0.2003,0.7997	-2617.57
0.1970,0.8030	-2617.38
0.2075,0.7925	-2618.29
0.2092,0.7908	-2618.53
0.2049,0.7951	-2617.98
0.2081,0.7919	-2618.37
0.2045,0.7955	-2617.94
0.2024,0.7976	-2617.74
0.2074,0.7926	-2618.29
0.2029,0.7971	-2617.78
0.1928,0.8072	-2617.28
0.1935,0.8065	-2617.28
0.1976,0.8024	-2617.41
0.2054,0.7946	-2618.04
0.1997,0.8003	-2617.53
0.1800,0.8200	-2617.98
0.1843,0.8157	-2617.57
0.1815,0.8185	-2617.82
0.1983,0.8017	-2617.44
0.2071,0.7929	-2618.24
0.2068,0.7932	-2618.21
0.1918,0.8082	-2617.28
0.1989,0.8011	-2617.48
0.1845,0.8155	-2617.56
0.1963,0.8037	-2617.35
0.1845,0.8155	-2617.55
0.2141,0.7859	-2619.34
0.1878,0.8122	-2617.37
0.1861,0.8139	-2617.45
0.1984,0.8016	-2617.45
0.2097,0.7903	-2618.61
0.1824,0.8176	-2617.73
0.2033,0.7967	-2617.81
0.1915,0.8085	-2617.28
0.2120,0.7880	-2618.96
0.1873,0.8127	-2617.39
0.2190,0.7810	-2620.31
0.1724,0.8276	-2619.17
0.1748,0.8252	-2618.74
0.1962,0.8038	-2617.35
0.2008,0.7992	-2617.60
0.1887,0.8113	-2617.33
0.1988,0.8012	-2617.47
0.1916,0.8084	-2617.28
0.1896,0.8104	-2617.31
0.1810,0.8190	-2617.87
0.1981,0.8019	-2617.43
0.1972,0.8028	-2617.39
0.1838,0.8162	-2617.61
0.1999,0.8001	-2617.54
0.2032,0.7968	-2617.81
0.1941,0.8059	-2617.29
0.1926,0.8074	-2617.28
0.1799,0.8201	-2617.99
0.2019,0.7981	-2617.70
0.2003,0.7997	-2617.57
0.1827,0.8173	-2617.70
0.1978,0.8022	-2617.42
0.1991,0.8009	-2617.49
0.1772,0.8228	-2618.34
0.1977,0.8023	-2617.41
0.1813,0.8187	-2617.84
0.1899,0.8101	-2617.30
0.1918,0.8082	-2617.28
0.1899,0.8101	-2617.30
0.1811,0.8189	-2617.86
0.1951,0.8049	-2617.31
0.1868,0.8132	-2617.41
0.2078,0.7922	-2618.33
0.2262,0.7738	-2622.09
0.1964,0.8036	-2617.36
0.1956,0.8044	-2617.33
0.1852,0.8148	-2617.51
0.1813,0.8187	-2617.83
0.1976,0.8024	-2617.40
0.1966,0.8034	-2617.36
0.1890,0.8110	-2617.32
0.1895,0.8105	-2617.31
0.1778,0.8222	-2618.27
0.1809,0.8191	-2617.88
0.1940,0.8060	-2617.29
0.2074,0.7926	-2618.28
0.2040,0.7960	-2617.88
0.2036,0.7964	-2617.85
0.1807,0.8193	-2617.90
0.1934,0.8066	-2617.28
0.2033,0.7967	-2617.82
0.1834,0.8166	-2617.64
0.2075,0.7925	-2618.29
0.1846,0.8154	-2617.55
0.1969,0.8031	-2617.37
0.1984,0.8016	-2617.45
0.2196,0.7804	-2620.45
0.1819,0.8181	-2617.78
0.1947,0.8053	-2617.30
0.1844,0.8156	-2617.56
0.1936,0.8064	-2617.28
0.1817,0.8183	-2617.80
0.1847,0.8153	-2617.54
0.1971,0.8029	-2617.38
0.2273,0.7727	-2622.39
0.1897,0.8103	-2617.30
0.2014,0.7986	-2617.65
0.1823,0.8177	-2617.74
0.1896,0.8104	-2617.31
0.2017,0.7983	-2617.67
0.1853,0.8147	-2617.50
0.1909,0.8091	-2617.28
0.1913,0.8087	-2617.28
0.1896,0.8104	-2617.31
0.1750,0.8250	-2618.70
0.1875,0.8125	-2617.38
0.1951,0.8049	-2617.31
0.1972,0.8028	-2617.39
0.2056,0.7944	-2618.07
0.2071,0.7929	-2618.25
0.1983,0.8017	-2617.44
0.1901,0.8099	-2617.29
0.1850,0.8150	-2617.52
0.2044,0.7956	-2617.93
0.2159,0.7841	-2619.68
0.1833,0.8167	-2617.64
0.2017,0.7983	-2617.67
0.1976,0.8024	-2617.40
0.1993,0.8007	-2617.50
0.1998,0.8002	-2617.53
0.1966,0.8034	-2617.36
0.1869,0.8131	-2617.41
0.2055,0.7945	-2618.05
0.1764,0.8236	-2618.46
0.2068,0.7932	-2618.21
0.2081,0.7919	-2618.37
0.2012,0.7988	-2617.64
0.2110,0.7890	-2618.81
0.2017,0.7983	-2617.67
0.1746,0.8254	-2618.76
0.2064,0.7936	-2618.16
0.2161,0.7839	-2619.71
0.2069,0.7931	-2618.22
0.1795,0.8205	-2618.03
0.2066,0.7934	-2618.19
0.1900,0.8100	-2617.30
0.1831,0.8169	-2617.66
0.1907,0.8093	-2617.29
0.1938,0.8062	-2617.29
0.1924,0.8076	-2617.28
0.1788,0.8212	-2618.12
0.2067,0.7933	-2618.20
0.1888,0.8112	-2617.33
0.1725,0.8275	-2619.16
0.1880,0.8120	-2617.36
0.2046,0.7954	-2617.95
0.1992,0.8008	-2617.49
0.1807,0.8193	-2617.90
0.1798,0.8202	-2618.01
0.1692,0.8308	-2619.86
0.1826,0.8174	-2617.71
0.1870,0.8130	-2617.40
0.2060,0.7940	-2618.11
0.1956,0.8044	-2617.33
0.1822,0.8178	-2617.75
0.1804,0.8196	-2617.93
0.2097,0.7903	-2618.61
0.1863,0.8137	-2617.44
0.1821,0.8179	-2617.76
0.1912,0.8088	-2617.28
0.1916,0.8084	-2617.28
0.1858,0.8142	-2617.46
0.2077,0.7923	-2618.32
0.1926,0.8074	-2617.28
0.1854,0.8146	-2617.49
0.1878,0.8122	-2617.36
0.1788,0.8212	-2618.12
0.2048,0.7952	-2617.98
0.2177,0.7823	-2620.04
0.2151,0.7849	-2619.51
0.1992,0.8008	-2617.49
0.1917,0.8083	-2617.28
0.2022,0.7978	-2617.72
0.2084,0.7916	-2618.42
0.2064,0.7936	-2618.15
0.1909,0.8091	-2617.28
0.2048,0.7952	-2617.97
0.1699,0.8301	-2619.71
0.1907,0.8093	-2617.29
0.2092,0.7908	-2618.53
0.1995,0.8005	-2617.52
0.1867,0.8133	-2617.42
0.1896,0.8104	-2617.31
0.1889,0.8111	-2617.32
0.1893,0.8107	-2617.31
0.1912,0.8088	-2617.28
0.1970,0.8030	-2617.38
0.1881,0.8119	-2617.35
0.1770,0.8230	-2618.37
0.1924,0.8076	-2617.28
0.1919,0.8081	-2617.28
0.1761,0.8239	-2618.52
0.2013,0.7987	-2617.64
0.1937,0.8063	-2617.29
0.1944,0.8056	-2617.30
0.2072,0.7928	-2618.26
0.1823,0.8177	-2617.74
0.2081,0.7919	-2618.38
0.1846,0.8154	-2617.55
0.2017,0.7983	-2617.67
0.1782,0.8218	-2618.20
0.1941,0.8059	-2617.29
0.1829,0.8171	-2617.68
0.1935,0.8065	-2617.28
0.1864,0.8136	-2617.43
0.1950,0.8050	-2617.31
0.1981,0.8019	-2617.43
0.1685,0.8315	-2620.03
0.1851,0.8149	-2617.51
0.2068,0.7932	-2618.21
0.1842,0.8158	-2617.58
0.1993,0.8007	-2617.50
0.1912,0.8088	-2617.28
0.1751,0.8249	-2618.68
0.1798,0.8202	-2618.00
0.1868,0.8132	-2617.41
0.1819,0.8181	-2617.78
0.2072,0.7928	-2618.26
0.2048,0.7952	-2617.98
0.1850,0.8150	-2617.52
0.1904,0.8096	-2617.29
0.2056,0.7944	-2618.06
0.1762,0.8238	-2618.50
0.1799,0.8201	-2617.99
0.1901,0.8099	-2617.30
0.1992,0.8008	-2617.49
0.1899,0.8101	-2617.30
0.1927,0.8073	-2617.28
0.1990,0.8010	-2617.48
0.1765,0.8235	-2618.46
0.2053,0.7947	-2618.02
0.1968,0.8032	-2617.37
0.1942,0.8058	-2617.29
0.1871,0.8129	-2617.40
0.1982,0.8018	-2617.44
0.1975,0.8025	-2617.40
0.1749,0.8251	-2618.72
0.1909,0.8091	-2617.28
0.1981,0.8019	-2617.43
0.1907,0.8093	-2617.29
0.1884,0.8116	-2617.34
0.2221,0.7779	-2621.03
0.2039,0.7961	-2617.88
0.1907,0.8093	-2617.29
0.1925,0.8075	-2617.28
0.1942,0.8058	-2617.29
0.1900,0.8100	-2617.30
0.1983,0.8017	-2617.44
0.1953,0.8047	-2617.32
0.2086,0.7914	-2618.44
0.1720,0.8280	-2619.26
0.1921,0.8079	-2617.28
0.2149,0.7851	-2619.47
0.1974,0.8026	-2617.40
0.1994,0.8006	-2617.50
0.1982,0.8018	-2617.43
0.1605,0.8395	-2622.32
0.2122,0.7878	-2619.01
0.1993,0.8007	-2617.50
0.1900,0.8100	-2617.30
0.1993,0.8007	-2617.50
0.1930,0.8070	-2617.28
0.1822,0.8178	-2617.74
0.1835,0.8165	-2617.63
0.1735,0.8265	-2618.96
0.1958,0.8042	-2617.33
0.1903,0.8097	-2617.29
0.1807,0.8193	-2617.90
0.1938,0.8062	-2617.29
0.2024,0.7976	-2617.74
0.1722,0.8278	-2619.22
0.2016,0.7984	-2617.66
0.1877,0.8123	-2617.37
0.1844,0.8156	-2617.56
0.1905,0.8095	-2617.29
0.1881,0.8119	-2617.35
0.1899,0.8101	-2617.30
0.1877,0.8123	-2617.37
0.2036,0.7964	-2617.85
0.1847,0.8153	-2617.54
0.1803,0.8197	-2617.95
0.1785,0.8215	-2618.16
0.1881,0.8119	-2617.35
0.1853,0.8147	-2617.50
0.1860,0.8140	-2617.46
0.1962,0.8038	-2617.35
0.1954,0.8046	-2617.32
0.2021,0.7979	-2617.71
0.1948,0.8052	-2617.31
0.1829,0.8171	-2617.68
0.1782,0.8218	-2618.20
0.1988,0.8012	-2617.47
0.1885,0.8115	-2617.34
0.1877,0.8123	-2617.37
0.2012,0.7988	-2617.64
0.1906,0.8094	-2617.29
0.1835,0.8165	-2617.63
0.2039,0.7961	-2617.87
0.1889,0.8111	-2617.32
0.1887,0.8113	-2617.33
0.2046,0.7954	-2617.96
0.1979,0.8021	-2617.42
0.1878,0.8122	-2617.37
0.1737,0.8263	-2618.92
0.1783,0.8217	-2618.19
0.1846,0.8154	-2617.54
0.1891,0.8109	-2617.32
0.1890,0.8110	-2617.32
0.2053,0.7947	-2618.03
0.1770,0.8230	-2618.37
0.1813,0.8187	-2617.84
0.1890,0.8110	-2617.32
0.1904,0.8096	-2617.29
0.2006,0.7994	-2617.59
0.1781,0.8219	-2618.23
0.1850,0.8150	-2617.52
0.1914,0.8086	-2617.28
0.1776,0.8224	-2618.29
0.1772,0.8228	-2618.36
0.1962,0.8038	-2617.35
0.1955,0.8045	-2617.32
0.1855,0.8145	-2617.49
0.1707,0.8293	-2619.53
0.1939,0.8061	-2617.29
0.2066,0.7934	-2618.18
0.1808,0.8192	-2617.89
0.1787,0.8213	-2618.15
0.1874,0.8126	-2617.38
0.1725,0.8275	-2619.14
0.1879,0.8121	-2617.36
0.1980,0.8020	-2617.42
0.1948,0.8052	-2617.30
0.1903,0.8097	-2617.29
0.1886,0.8114	-2617.33
0.2023,0.7977	-2617.72
0.1833,0.8167	-2617.65
0.1816,0.8184	-2617.80
0.1893,0.8107	-2617.31
0.1936,0.8064	-2617.28
0.1824,0.8176	-2617.73
0.2018,0.7982	-2617.69
0.1838,0.8162	-2617.61
0.1858,0.8142	-2617.46
0.1975,0.8025	-2617.40
0.2049,0.7951	-2617.99
0.1813,0.8187	-2617.84
0.2134,0.7866	-2619.21
0.2064,0.7936	-2618.16
0.1877,0.8123	-2617.37
0.1921,0.8079	-2617.28
0.2027,0.7973	-2617.77
0.1839,0.8161	-2617.60
0.1802,0.8198	-2617.96
0.1968,0.8032	-2617.37
0.2098,0.7902	-2618.63
0.1978,0.8022	-2617.41
0.1826,0.8174	-2617.71
0.1856,0.8144	-2617.48
0.1801,0.8199	-2617.97
0.2212,0.7788	-2620.81
0.2029,0.7971	-2617.78
0.1943,0.8057	-2617.29
0.2010,0.7990	-2617.62
0.2122,0.7878	-2619.01
0.1940,0.8060	-2617.29
0.1941,0.8059	-2617.29
0.2074,0.7926	-2618.29
0.1912,0.8088	-2617.28
0.1878,0.8122	-2617.37
0.1957,0.8043	-2617.33
0.1845,0.8155	-2617.55
0.1940,0.8060	-2617.29
0.1989,0.8011	-2617.47
0.1860,0.8140	-2617.45
0.1842,0.8158	-2617.57
0.2052,0.7948	-2618.01
0.2094,0.7906	-2618.56
0.2136,0.7864	-2619.24
0.1901,0.8099	-2617.30
0.1857,0.8143	-2617.47
0.2120,0.7880	-2618.96
0.1994,0.8006	-2617.51
0.2006,0.7994	-2617.59
0.1995,0.8005	-2617.51
0.1883,0.8117	-2617.35
0.1909,0.8091	-2617.28
0.2031,0.7969	-2617.80
0.1956,0.8044	-2617.33
0.1803,0.8197	-2617.95
0.2053,0.7947	-2618.02
0.1962,0.8038	-2617.35
0.1944,0.8056	-2617.30
0.2023,0.7977	-2617.73
0.1936,0.8064	-2617.28
0.1891,0.8109	-2617.32
0.1858,0.8142	-2617.46
0.1845,0.8155	-2617.55
0.2019,0.7981	-2617.69
0.1941,0.8059	-2617.29
0.1933,0.8067	-2617.28
0.2009,0.7991	-2617.61
0.1854,0.8146	-2617.49
0.1799,0.8201	-2617.99
0.1965,0.8035	-2617.36
0.1843,0.8157	-2617.57
0.1856,0.8144	-2617.48
0.1931,0.8069	-2617.28
0.2124,0.7876	-2619.03
0.1724,0.8276	-2619.17
0.1942,0.8058	-2617.29
0.1787,0.8213	-2618.14
0.1775,0.8225	-2618.31
0.1791,0.8209	-2618.09
0.1995,0.8005	-2617.51
0.1907,0.8093	-2617.29
0.2021,0.7979	-2617.71
0.1862,0.8138	-2617.44
0.1695,0.8305	-2619.79
0.1818,0.8182	-2617.78
0.1862,0.8138	-2617.44
0.2045,0.7955	-2617.94
0.2054,0.7946	-2618.04
0.2024,0.7976	-2617.73
0.1892,0.8108	-2617.32
0.1979,0.8021	-2617.42
0.1783,0.8217	-2618.19
0.2099,0.7901	-2618.63
0.2035,0.7965	-2617.84
0.1775,0.8225	-2618.30
0.1966,0.8034	-2617.36
0.2091,0.7909	-2618.52
0.1942,0.8058	-2617.29
0.1929,0.8071	-2617.28
0.1983,0.8017	-2617.44
0.1894,0.8106	-2617.31
0.1842,0.8158	-2617.58
0.1870,0.8130	-2617.40
0.1933,0.8067	-2617.28
0.1994,0.8006	-2617.50
0.1785,0.8215	-2618.17
0.1828,0.8172	-2617.69
0.1853,0.8147	-2617.50
0.1796,0.8204	-2618.02
0.1873,0.8127	-2617.39
0.1954,0.8046	-2617.32
0.2166,0.7834	-2619.82
0.2041,0.7959	-2617.90
0.2041,0.7959	-2617.90
0.2135,0.7865	-2619.23
0.1914,0.8086	-2617.28
0.1971,0.8029	-2617.38
0.1890,0.8110	-2617.32
0.1967,0.8033	-2617.36
0.1983,0.8017	-2617.44
0.1830,0.8170	-2617.67
0.1808,0.8192	-2617.88
0.2089,0.7911	-2618.49
0.1877,0.8123	-2617.37
0.1847,0.8153	-2617.54
0.1853,0.8147	-2617.50
0.1919,0.8081	-2617.28
0.1722,0.8278	-2619.22
0.1976,0.8024	-2617.41
0.1849,0.8151	-2617.52
0.2054,0.7946	-2618.04
0.1901,0.8099	-2617.30
0.2002,0.7998	-2617.56
0.1819,0.8181	-2617.77
0.1879,0.8121	-2617.36
0.2037,0.7963	-2617.86
0.2200,0.7800	-2620.54
0.1904,0.8096	-2617.29
0.1990,0.8010	-2617.48
0.1830,0.8170	-2617.67
0.2114,0.7886	-2618.87
0.1914,0.8086	-2617.28
0.2212,0.7788	-2620.81
0.2016,0.7984	-2617.67
0.2020,0.7980	-2617.70
0.1746,0.8254	-2618.76
0.2092,0.7908	-2618.53
0.2099,0.7901	-2618.64
0.2133,0.7867	-2619.18
0.2088,0.7912	-2618.47
0.1902,0.8098	-2617.29
0.1944,0.8056	-2617.30
0.1869,0.8131	-2617.40
0.2033,0.7967	-2617.82
0.1808,0.8192	-2617.89
0.1972,0.8028	-2617.39
0.1904,0.8096	-2617.29
0.1783,0.8217	-2618.19
0.1953,0.8047	-2617.32
0.2095,0.7905	-2618.58
0.2049,0.7951	-2617.98
0.2059,0.7941	-2618.09
0.2194,0.7806	-2620.41
0.1902,0.8098	-2617.29
0.1896,0.8104	-2617.31
0.1847,0.8153	-2617.54
0.1954,0.8046	-2617.32
0.1944,0.8056	-2617.30
0.2117,0.7883	-2618.92
0.1852,0.8148	-2617.51
0.1891,0.8109	-2617.32
0.1996,0.8004	-2617.52
0.2096,0.7904	-2618.59
0.1904,0.8096	-2617.29
0.1956,0.8044	-2617.33
0.1755,0.8245	-2618.61
0.2145,0.7855	-2619.40
0.2022,0.7978	-2617.72
0.2041,0.7959	-2617.90
0.1980,0.8020	-2617.42
0.2011,0.7989	-2617.63
0.2082,0.7918	-2618.40
0.1673,0.8327	-2620.33
0.1745,0.8255	-2618.79
0.1828,0.8172	-2617.69
0.1942,0.8058	-2617.29
0.2013,0.7987	-2617.64
0.1809,0.8191	-2617.88
0.1931,0.8069	-2617.28
0.1881,0.8119	-2617.35
0.1839,0.8161	-2617.60
0.1988,0.8012	-2617.47
0.2015,0.7985	-2617.66
0.1802,0.8198	-2617.95
0.2033,0.7967	-2617.82
0.1713,0.8287	-2619.41
0.1918,0.8082	-2617.28
0.1900,0.8100	-2617.30
0.1865,0.8135	-2617.43
0.1845,0.8155	-2617.55
0.1945,0.8055	-2617.30
0.1722,0.8278	-2619.22
0.2053,0.7947	-2618.03
0.2001,0.7999	-2617.55
0.2008,0.7992	-2617.60
0.1876,0.8124	-2617.38
0.1847,0.8153	-2617.53
0.1831,0.8169	-2617.67
0.1920,0.8080	-2617.28
0.1919,0.8081	-2617.28
0.2009,0.7991	-2617.61
0.1896,0.8104	-2617.31
0.2063,0.7937	-2618.15
0.2057,0.7943	-2618.07
0.1887,0.8113	-2617.33
0.1955,0.8045	-2617.32
0.1801,0.8199	-2617.97
0.2243,0.7757	-2621.58
0.2055,0.7945	-2618.05
0.1939,0.8061	-2617.29
0.2057,0.7943	-2618.07
0.1809,0.8191	-2617.88
0.1975,0.8025	-2617.40
0.2002,0.7998	-2617.56
0.1897,0.8103	-2617.30
0.1873,0.8127	-2617.39
0.2024,0.7976	-2617.73
0.2098,0.7902	-2618.62
0.2040,0.7960	-2617.89
0.1894,0.8106	-2617.31
0.1809,0.8191	-2617.87
0.1902,0.8098	-2617.29
0.2037,0.7963	-2617.86
0.1929,0.8071	-2617.28
0.2034,0.7966	-2617.83
0.1813,0.8187	-2617.83
0.1798,0.8202	-2618.00
0.1895,0.8105	-2617.31
0.2125,0.7875	-2619.05
0.1834,0.8166	-2617.64
0.2129,0.7871	-2619.12
0.1896,0.8104	-2617.31
0.1865,0.8135	-2617.43
0.1848,0.8152	-2617.53
0.1933,0.8067	-2617.28
0.1986,0.8014	-2617.46
0.1876,0.8124	-2617.37
0.1870,0.8130	-2617.40
0.1964,0.8036	-2617.35
0.1867,0.8133	-2617.41
0.2000,0.8000	-2617.54
0.1930,0.8070	-2617.28
0.1977,0.8023	-2617.41
0.1745,0.8255	-2618.78
0.1856,0.8144	-2617.48
0.1765,0.8235	-2618.46
0.1942,0.8058	-2617.29
0.1773,0.8227	-2618.34
0.1992,0.8008	-2617.50
0.1918,0.8082	-2617.28
0.2055,0.7945	-2618.06
0.1819,0.8181	-2617.77
0.1956,0.8044	-2617.33
0.1903,0.8097	-2617.29
0.1887,0.8113	-2617.33
0.1941,0.8059	-2617.29
0.1785,0.8215	-2618.17
0.1977,0.8023	-2617.41
0.1962,0.8038	-2617.35
0.1795,0.8205	-2618.04
0.1862,0.8138	-2617.44
0.1928,0.8072	-2617.28
0.1853,0.8147	-2617.49
0.2007,0.7993	-2617.60
0.1902,0.8098	-2617.29
0.1678,0.8322	-2620.19
0.2044,0.7956	-2617.93
0.1813,0.8187	-2617.83
0.1732,0.8268	-2619.02
0.1833,0.8167	-2617.64
0.1857,0.8143	-2617.47
0.1886,0.8114	-2617.33
0.2102,0.7898	-2618.68
0.2063,0.7937	-2618.14
0.1929,0.8071	-2617.28
0.1987,0.8013	-2617.46
0.1540,0.8460	-2624.80
0.1960,0.8040	-2617.34
0.2015,0.7985	-2617.66
0.1886,0.8114	-2617.34
0.2108,0.7892	-2618.76
0.1879,0.8121	-2617.36
0.1680,0.8320	-2620.14
0.1904,0.8096	-2617.29
0.2196,0.7804	-2620.46
0.1840,0.8160	-2617.59
0.2106,0.7894	-2618.74
0.1880,0.8120	-2617.36
0.1796,0.8204	-2618.03
0.1966,0.8034	-2617.36
0.2229,0.7771	-2621.22
0.1832,0.8168	-2617.66
0.1908,0.8092	-2617.28
0.1932,0.8068	-2617.28
0.1860,0.8140	-2617.45
0.1751,0.8249	-2618.68
0.1959,0.8041	-2617.34
0.1975,0.8025	-2617.40
0.1953,0.8047	-2617.32
0.1933,0.8067	-2617.28
0.1835,0.8165	-2617.63
0.1908,0.8092	-2617.28
0.2024,0.7976	-2617.74
0.1853,0.8147	-2617.50
0.1759,0.8241	-2618.54
0.1787,0.8213	-2618.14
0.1930,0.8070	-2617.28
0.1837,0.8163	-2617.61
0.1873,0.8127	-2617.39
0.1944,0.8056	-2617.30
0.1921,0.8079	-2617.28
0.1761,0.8239	-2618.52
0.1919,0.8081	-2617.28
0.1794,0.8206	-2618.06
0.1965,0.8035	-2617.36
0.1898,0.8102	-2617.30
0.1880,0.8120	-2617.36
0.2049,0.7951	-2617.99
0.2093,0.7907	-2618.54
0.2045,0.7955	-2617.95
0.1863,0.8137	-2617.44
0.1886,0.8114	-2617.34
0.1768,0.8232	-2618.41
0.1902,0.8098	-2617.29
0.2087,0.7913	-2618.45
0.1862,0.8138	-2617.44
0.1852,0.8148	-2617.50
0.1785,0.8215	-2618.17
0.1783,0.8217	-2618.20
0.1875,0.8125	-2617.38
0.1889,0.8111	-2617.33
0.1913,0.8087	-2617.28
0.1738,0.8262	-2618.90
0.1867,0.8133	-2617.41
0.1861,0.8139	-2617.45
0.1898,0.8102	-2617.30
0.1776,0.8224	-2618.29
0.1905,0.8095	-2617.29
0.2007,0.7993	-2617.60
0.1677,0.8323	-2620.24
0.1908,0.8092	-2617.28
0.1881,0.8119	-2617.35
0.2004,0.7996	-2617.58
0.1888,0.8112	-2617.33
0.1837,0.8163	-2617.61
0.1815,0.8185	-2617.81
0.1811,0.8189	-2617.86
0.1901,0.8099	-2617.30
0.1893,0.8107	-2617.31
0.1863,0.8137	-2617.44
0.1806,0.8194	-2617.91
0.1824,0.8176	-2617.73
0.1925,0.8075	-2617.28
0.1922,0.8078	-2617.28
0.1921,0.8079	-2617.28
0.2003,0.7997	-2617.57
0.1814,0.8186	-2617.83
0.1941,0.8059	-2617.29
0.2000,0.8000	-2617.55
0.2001,0.7999	-2617.56
0.1862,0.8138	-2617.44
0.1767,0.8233	-2618.42
0.2034,0.7966	-2617.83
0.1998,0.8002	-2617.53
0.1980,0.8020	-2617.42
0.2050,0.7950	-2618.00
0.1742,0.8258	-2618.84
0.1764,0.8236	-2618.46
0.1826,0.8174	-2617.71
0.1833,0.8167	-2617.64
0.2078,0.7922	-2618.34
0.1898,0.8102	-2617.30
0.1778,0.8222	-2618.26
0.1818,0.8182	-2617.79
0.1787,0.8213	-2618.13
0.1990,0.8010	-2617.48
0.1856,0.8144	-2617.48
0.1882,0.8118	-2617.35
0.1977,0.8023	-2617.41
0.1921,0.8079	-2617.28
0.2008,0.7992	-2617.60
0.2112,0.7888	-2618.84
0.1814,0.8186	-2617.82
0.1832,0.8168	-2617.65
0.1977,0.8023	-2617.41
0.1840,0.8160	-2617.59
0.1849,0.8151	-2617.53
0.2065,0.7935	-2618.17
0.1962,0.8038	-2617.35
0.1964,0.8036	-2617.35
0.2049,0.7951	-2617.98
0.1899,0.8101	-2617.30
0.2096,0.7904	-2618.59
0.1890,0.8110	-2617.32
0.1911,0.8089	-2617.28
0.2208,0.7792	-2620.73
0.2062,0.7938	-2618.13
0.2078,0.7922	-2618.34
0.1958,0.8042	-2617.33
0.2004,0.7996	-2617.57
0.1968,0.8032	-2617.37
0.1992,0.8008	-2617.50
0.2104,0.7896	-2618.71
0.1780,0.8220	-2618.23
0.1961,0.8039	-2617.34
0.2133,0.7867	-2619.18
0.1900,0.8100	-2617.30
0.1914,0.8086	-2617.28
0.2037,0.7963	-2617.86
0.1856,0.8144	-2617.48
0.1989,0.8011	-2617.48
0.1967,0.8033	-2617.37
0.1864,0.8136	-2617.43
0.1750,0.8250	-2618.69
0.2068,0.7932	-2618.20
0.1864,0.8136	-2617.43
0.2101,0.7899	-2618.66
0.1856,0.8144	-2617.48
0.1786,0.8214	-2618.16
0.1920,0.8080	-2617.28
0.1894,0.8106	-2617.31
0.2027,0.7973	-2617.77
0.1994,0.8006	-2617.51
0.1939,0.8061	-2617.29
0.1845,0.8155	-2617.55
0.1793,0.8207	-2618.06
0.1871,0.8129	-2617.39
0.2012,0.7988	-2617.63
0.2020,0.7980	-2617.70
0.1840,0.8160	-2617.59
0.2068,0.7932	-2618.21
0.1947,0.8053	-2617.30
0.1913,0.8087	-2617.28
0.1803,0.8197	-2617.94
0.2018,0.7982	-2617.68
0.1972,0.8028	-2617.39
0.2104,0.7896	-2618.72
0.1900,0.8100	-2617.30
0.1829,0.8171	-2617.68
0.1885,0.8115	-2617.34
0.1933,0.8067	-2617.28
0.1978,0.8022	-2617.41
0.1923,0.8077	-2617.28
0.1855,0.8145	-2617.49
0.1904,0.8096	-2617.29
0.1914,0.8086	-2617.28
0.1871,0.8129	-2617.39
0.1936,0.8064	-2617.28
0.2042,0.7958	-2617.91
0.1821,0.8179	-2617.75
0.1894,0.8106	-2617.31
0.1738,0.8262	-2618.91
0.1769,0.8231	-2618.40
0.1890,0.8110	-2617.32
0.1945,0.8055	-2617.30
0.1909,0.8091	-2617.28
0.1882,0.8118	-2617.35
0.1749,0.8251	-2618.71
0.1851,0.8149	-2617.51
0.1810,0.8190	-2617.87
0.2064,0.7936	-2618.15
0.1789,0.8211	-2618.11
0.1793,0.8207	-2618.07
0.1715,0.8285	-2619.36
0.1933,0.8067	-2617.28
0.1972,0.8028	-2617.39
0.1868,0.8132	-2617.41
0.1919,0.8081	-2617.28
0.1931,0.8069	-2617.28
0.1719,0.8281	-2619.27
0.1863,0.8137	-2617.44
0.1939,0.8061	-2617.29
0.1793,0.8207	-2618.07
0.1811,0.8189	-2617.86
0.1960,0.8040	-2617.34
0.1891,0.8109	-2617.32
0.1983,0.8017	-2617.44
0.1990,0.8010	-2617.48
0.1842,0.8158	-2617.57
0.1849,0.8151	-2617.53
0.2044,0.7956	-2617.93
0.1928,0.8072	-2617.28
0.2037,0.7963	-2617.86
0.1769,0.8231	-2618.40
0.1926,0.8074	-2617.28
0.1824,0.8176	-2617.73
0.1905,0.8095	-2617.29
0.1705,0.8295	-2619.57
0.1827,0.8173	-2617.70
0.1954,0.8046	-2617.32
0.1960,0.8040	-2617.34
0.1828,0.8172	-2617.69
0.1943,0.8057	-2617.30
0.1988,0.8012	-2617.47
0.1697,0.8303	-2619.75
0.1950,0.8050	-2617.31
0.1765,0.8235	-2618.45
0.1697,0.8303	-2619.76
0.2068,0.7932	-2618.21
0.1847,0.8153	-2617.54
0.1840,0.8160	-2617.59
0.1910,0.8090	-2617.28
0.1794,0.8206	-2618.05
0.1972,0.8028	-2617.39
0.1856,0.8144	-2617.48
0.1795,0.8205	-2618.03
0.1768,0.8232	-2618.42
0.1889,0.8111	-2617.32
0.1872,0.8128	-2617.39
0.1843,0.8157	-2617.57
0.1965,0.8035	-2617.36
0.2075,0.7925	-2618.30
0.1706,0.8294	-2619.56
0.1785,0.8215	-2618.17
0.1969,0.8031	-2617.37
0.1973,0.8027	-2617.39
0.2071,0.7929	-2618.25
0.1959,0.8041	-2617.34
0.1766,0.8234	-2618.44
0.1702,0.8298	-2619.63
0.1947,0.8053	-2617.30
0.1806,0.8194	-2617.91
0.1838,0.8162	-2617.61
0.1921,0.8079	-2617.28
0.1713,0.8287	-2619.40
0.1912,0.8088	-2617.28
0.1961,0.8039	-2617.34
0.1924,0.8076	-2617.28
0.2011,0.7989	-2617.63
0.1956,0.8044	-2617.33
0.1988,0.8012	-2617.47
0.1979,0.8021	-2617.42
0.1808,0.8192	-2617.88
0.1893,0.8107	-2617.31
0.1992,0.8008	-2617.49
0.1845,0.8155	-2617.55
0.1978,0.8022	-2617.42
0.1863,0.8137	-2617.44
0.1738,0.8262	-2618.90
0.1853,0.8147	-2617.50
0.1889,0.8111	-2617.33
0.1964,0.8036	-2617.35
0.2070,0.7930	-2618.24
0.1754,0.8246	-2618.62
0.1949,0.8051	-2617.31
0.1778,0.8222	-2618.26
0.1910,0.8090	-2617.28
0.1926,0.8074	-2617.28
0.2134,0.7866	-2619.21
0.1713,0.8287	-2619.39
0.1861,0.8139	-2617.45
0.1927,0.8073	-2617.28
0.1830,0.8170	-2617.67
0.1910,0.8090	-2617.28
0.2109,0.7891	-2618.80
0.1872,0.8128	-2617.39
0.1860,0.8140	-2617.45
0.2004,0.7996	-2617.57
0.1773,0.8227	-2618.34
0.1881,0.8119	-2617.35
0.2084,0.7916	-2618.42
0.1993,0.8007	-2617.50
0.1788,0.8212	-2618.12
0.1837,0.8163	-2617.61
0.1715,0.8285	-2619.35
0.1844,0.8156	-2617.56
0.2139,0.7861	-2619.31
0.1882,0.8118	-2617.35
0.1857,0.8143	-2617.47
0.1918,0.8082	-2617.28
0.1766,0.8234	-2618.43
0.2085,0.7915	-2618.43
0.1967,0.8033	-2617.37
0.1963,0.8037	-2617.35
0.1894,0.8106	-2617.31
0.2075,0.7925	-2618.29
0.1938,0.8062	-2617.29
0.2017,0.7983	-2617.67
0.1853,0.8147	-2617.50
0.2086,0.7914	-2618.45
0.1889,0.8111	-2617.33
0.1988,0.8012	-2617.47
0.1907,0.8093	-2617.29
0.1944,0.8056	-2617.30
0.1911,0.8089	-2617.28
0.1866,0.8134	-2617.42
0.1980,0.8020	-2617.43
0.1777,0.8223	-2618.27
0.1922,0.8078	-2617.28
0.1783,0.8217	-2618.19
0.1790,0.8210	-2618.10
0.1945,0.8055	-2617.30
0.1998,0.8002	-2617.53
0.1832,0.8168	-2617.66
0.2027,0.7973	-2617.77
0.1938,0.8062	-2617.29
0.2005,0.7995	-2617.58
0.1790,0.8210	-2618.11
0.1987,0.8013	-2617.47
0.1868,0.8132	-2617.41
0.1828,0.8172	-2617.69
0.1905,0.8095	-2617.29
0.2018,0.7982	-2617.68
0.1996,0.8004	-2617.52
0.1908,0.8092	-2617.28
0.1852,0.8148	-2617.51
0.1806,0.8194	-2617.91
0.1915,0.8085	-2617.28
0.1980,0.8020	-2617.43
0.2011,0.7989	-2617.63
0.2028,0.7972	-2617.77
0.2086,0.7914	-2618.45
0.1887,0.8113	-2617.33
0.1864,0.8136	-2617.43
0.1845,0.8155	-2617.56
0.2020,0.7980	-2617.70
0.1746,0.8254	-2618.76
0.1825,0.8175	-2617.72
0.2045,0.7955	-2617.94
0.1982,0.8018	-2617.44
0.2015,0.7985	-2617.66
0.2038,0.7962	-2617.87
0.1777,0.8223	-2618.28
0.1923,0.8077	-2617.28
0.2062,0.7938	-2618.13
0.1779,0.8221	-2618.24
0.1969,0.8031	-2617.38
0.1872,0.8128	-2617.39
0.1993,0.8007	-2617.50
0.1814,0.8186	-2617.82
0.2026,0.7974	-2617.75
0.1838,0.8162	-2617.61
0.1848,0.8152	-2617.53
0.1951,0.8049	-2617.31
0.1992,0.8008	-2617.49
0.1788,0.8212	-2618.13
0.1960,0.8040	-2617.34
0.1858,0.8142	-2617.47
0.1945,0.8055	-2617.30
0.1800,0.8200	-2617.98
0.1827,0.8173	-2617.70
0.1838,0.8162	-2617.61
0.1880,0.8120	-2617.36
0.1841,0.8159	-2617.58
0.2026,0.7974	-2617.75
0.1732,0.8268	-2619.03
0.2003,0.7997	-2617.57
0.1803,0.8197	-2617.94
0.1894,0.8106	-2617.31
0.1807,0.8193	-2617.90
0.2059,0.7941	-2618.10
0.1668,0.8332	-2620.46
0.1922,0.8078	-2617.28
0.1806,0.8194	-2617.91
0.2054,0.7946	-2618.04
0.1883,0.8117	-2617.35
0.1871,0.8129	-2617.39
0.1878,0.8122	-2617.37
0.1879,0.8121	-2617.36
0.1866,0.8134	-2617.42
0.2054,0.7946	-2618.04
0.1839,0.8161	-2617.59
0.2124,0.7876	-2619.04
0.1737,0.8263	-2618.93
0.1886,0.8114	-2617.34
0.2046,0.7954	-2617.95
0.1930,0.8070	-2617.28
0.2002,0.7998	-2617.56
0.1923,0.8077	-2617.28
0.1766,0.8234	-2618.44
0.1894,0.8106	-2617.31
0.1925,0.8075	-2617.28
0.1845,0.8155	-2617.55
0.1877,0.8123	-2617.37
0.2003,0.7997	-2617.56
0.2086,0.7914	-2618.44
0.2001,0.7999	-2617.55
0.1951,0.8049	-2617.31
0.1812,0.8188	-2617.84
0.1962,0.8038	-2617.35
0.1890,0.8110	-2617.32
0.1904,0.8096	-2617.29
0.2017,0.7983	-2617.68
0.2094,0.7906	-2618.56
0.1760,0.8240	-2618.54
0.2100,0.7900	-2618.66
0.1779,0.8221	-2618.24
0.1879,0.8121	-2617.36
0.1884,0.8116	-2617.34
0.1878,0.8122	-2617.36
0.1919,0.8081	-2617.28
0.2075,0.7925	-2618.30
0.1963,0.8037	-2617.35
0.1753,0.8247	-2618.64
0.1955,0.8045	-2617.33
0.1826,0.8174	-2617.71
0.1946,0.8054	-2617.30
0.1876,0.8124	-2617.37
0.2134,0.7866	-2619.21
0.1754,0.8246	-2618.63
0.2015,0.7985	-2617.66
0.1932,0.8068	-2617.28
0.1896,0.8104	-2617.31
0.2053,0.7947	-2618.03
0.1907,0.8093	-2617.29
0.1758,0.8242	-2618.56
0.2015,0.7985	-2617.66
0.1878,0.8122	-2617.37
0.1772,0.8228	-2618.35
0.1777,0.8223	-2618.28
0.1971,0.8029	-2617.38
0.1845,0.8155	-2617.55
0.2092,0.7908	-2618.52
0.1886,0.8114	-2617.34
0.1864,0.8136	-2617.43
0.1857,0.8143	-2617.47
0.1959,0.8041	-2617.34
0.1998,0.8002	-2617.53
0.1875,0.8125	-2617.38
0.1964,0.8036	-2617.35
0.1868,0.8132	-2617.41
0.1929,0.8071	-2617.28
0.1847,0.8153	-2617.54
0.1818,0.8182	-2617.78
0.1789,0.8211	-2618.11
0.2076,0.7924	-2618.32
0.2091,0.7909	-2618.52
0.1925,0.8075	-2617.28
0.1844,0.8156	-2617.56
0.1987,0.8013	-2617.46
0.1909,0.8091	-2617.28
0.1937,0.8063	-2617.28
0.1919,0.8081	-2617.28
0.1938,0.8062	-2617.29
0.1956,0.8044	-2617.33
0.1840,0.8160	-2617.59
0.2030,0.7970	-2617.79
0.1957,0.8043	-2617.33
0.1817,0.8183	-2617.79
0.1986,0.8014	-2617.46
0.2043,0.7957	-2617.92
0.1917,0.8083	-2617.28
0.1806,0.8194	-2617.91
0.1760,0.8240	-2618.53
0.1971,0.8029	-2617.38
0.1930,0.8070	-2617.28
0.1944,0.8056	-2617.30
0.1839,0.8161	-2617.60
0.1789,0.8211	-2618.11
0.1831,0.8169	-2617.66
0.1959,0.8041	-2617.34
0.1817,0.8183	-2617.79
0.2126,0.7874	-2619.07
0.1859,0.8141	-2617.46
0.1862,0.8138	-2617.44
0.1843,0.8157	-2617.56
0.1765,0.8235	-2618.45
0.1971,0.8029	-2617.38
0.1946,0.8054	-2617.30
0.1832,0.8168	-2617.65
0.1993,0.8007	-2617.50
0.1905,0.8095	-2617.29
0.2060,0.7940	-2618.10
0.1785,0.8215	-2618.17
0.1776,0.8224	-2618.29
0.1883,0.8117	-2617.35
0.1969,0.8031	-2617.38
0.1916,0.8084	-2617.28
0.1970,0.8030	-2617.38
0.1875,0.8125	-2617.38
0.1941,0.8059	-2617.29
0.1987,0.8013	-2617.46
0.2048,0.7952	-2617.97
0.2156,0.7844	-2619.62
0.1976,0.8024	-2617.40
0.1817,0.8183	-2617.79
0.1874,0.8126	-2617.38
0.1940,0.8060	-2617.29
0.2001,0.7999	-2617.55
0.2227,0.7773	-2621.17
0.2203,0.7797	-2620.61
0.1922,0.8078	-2617.28
0.1984,0.8016	-2617.45
0.1901,0.8099	-2617.30
0.1822,0.8178	-2617.74
0.2104,0.7896	-2618.72
0.2193,0.7807	-2620.39
0.1772,0.8228	-2618.34
0.1927,0.8073	-2617.28
0.1869,0.8131	-2617.41
0.1874,0.8126	-2617.38
0.1967,0.8033	-2617.37
0.1920,0.8080	-2617.28
0.1892,0.8108	-2617.32
0.2162,0.7838	-2619.74
0.2056,0.7944	-2618.07
0.1883,0.8117	-2617.35
0.2060,0.7940	-2618.11
0.1907,0.8093	-2617.29
0.1984,0.8016	-2617.45
0.2007,0.7993	-2617.60
0.2112,0.7888	-2618.83
0.1873,0.8127	-2617.39
0.1872,0.8128	-2617.39
0.2074,0.7926	-2618.29
0.1912,0.8088	-2617.28
0.2052,0.7948	-2618.02
0.2209,0.7791	-2620.75
0.1879,0.8121	-2617.36
0.1979,0.8021	-2617.42
0.1916,0.8084	-2617.28
0.1817,0.8183	-2617.79
0.1813,0.8187	-2617.83
0.2008,0.7992	-2617.61
0.1811,0.8189	-2617.85
0.1912,0.8088	-2617.28
0.1923,0.8077	-2617.28
0.1881,0.8119	-2617.35
0.1864,0.8136	-2617.43
0.1958,0.8042	-2617.33
0.1882,0.8118	-2617.35
0.1815,0.8185	-2617.81
0.1889,0.8111	-2617.32
0.1756,0.8244	-2618.60
0.1884,0.8116	-2617.34
0.2028,0.7972	-2617.77
0.1849,0.8151	-2617.53
0.1924,0.8076	-2617.28
0.1945,0.8055	-2617.30
0.1939,0.8061	-2617.29
0.1941,0.8059	-2617.29
0.2155,0.7845	-2619.60
0.1845,0.8155	-2617.55
0.1995,0.8005	-2617.51
0.2068,0.7932	-2618.21
0.2000,0.8000	-2617.54
0.2098,0.7902	-2618.61
0.2041,0.7959	-2617.90
0.1953,0.8047	-2617.32
0.2041,0.7959	-2617.90
0.1879,0.8121	-2617.36
0.1938,0.8062	-2617.29
0.1815,0.8185	-2617.81
0.2007,0.7993	-2617.59
0.1858,0.8142	-2617.47
0.1820,0.8180	-2617.76
0.1733,0.8267	-2619.00
0.1828,0.8172	-2617.69
0.1862,0.8138	-2617.44
0.1876,0.8124	-2617.37
0.1849,0.8151	-2617.52
0.1949,0.8051	-2617.31
0.1990,0.8010	-2617.48
0.2016,0.7984	-2617.66
0.2041,0.7959	-2617.90
0.1844,0.8156	-2617.56
0.1836,0.8164	-2617.62
0.2073,0.7927	-2618.28
0.1889,0.8111	-2617.33
0.1808,0.8192	-2617.89
0.1966,0.8034	-2617.36
0.2023,0.7977	-2617.72
0.1906,0.8094	-2617.29
0.2037,0.7963	-2617.85
0.1790,0.8210	-2618.11
0.1865,0.8135	-2617.43
0.1900,0.8100	-2617.30
0.2037,0.7963	-2617.86
0.1863,0.8137	-2617.44
0.2099,0.7901	-2618.63
0.1679,0.8321	-2620.16
0.1838,0.8162	-2617.60
0.1756,0.8244	-2618.60
0.2023,0.7977	-2617.73
0.1893,0.8107	-2617.32
0.1985,0.8015	-2617.45
0.1889,0.8111	-2617.33
0.1939,0.8061	-2617.29
0.1899,0.8101	-2617.30
0.1779,0.8221	-2618.25
0.1790,0.8210	-2618.10
0.2013,0.7987	-2617.64
0.1934,0.8066	-2617.28
0.1995,0.8005	-2617.51
0.1729,0.8271	-2619.08
0.1770,0.8230	-2618.37
0.1911,0.8089	-2617.28
0.1971,0.8029	-2617.38
0.1897,0.8103	-2617.31
0.1819,0.8181	-2617.78
0.1844,0.8156	-2617.56
0.1981,0.8019	-2617.43
0.1992,0.8008	-2617.49
0.2033,0.7967	-2617.82
0.1980,0.8020	-2617.43
0.1922,0.8078	-2617.28
0.1801,0.8199	-2617.96
0.2114,0.7886	-2618.87
0.1689,0.8311	-2619.94
0.1997,0.8003	-2617.53
0.1855,0.8145	-2617.48
0.1985,0.8015	-2617.45
0.2051,0.7949	-2618.01
0.1895,0.8105	-2617.31
0.1822,0.8178	-2617.75
0.2055,0.7945	-2618.05
0.1990,0.8010	-2617.48
0.1874,0.8126	-2617.38
0.1762,0.8238	-2618.49
0.2093,0.7907	-2618.55
0.1854,0.8146	-2617.49
0.2048,0.7952	-2617.97
0.1993,0.8007	-2617.50
0.2191,0.7809	-2620.34
0.1924,0.8076	-2617.28
0.1997,0.8003	-2617.53
0.2011,0.7989	-2617.62
0.1978,0.8022	-2617.41
0.1898,0.8102	-2617.30
0.2114,0.7886	-2618.86
0.1997,0.8003	-2617.52
0.2017,0.7983	-2617.68
0.2023,0.7977	-2617.72
0.1977,0.8023	-2617.41
0.1896,0.8104	-2617.31
0.2027,0.7973	-2617.76
0.1747,0.8253	-2618.75
0.2161,0.7839	-2619.71
0.1996,0.8004	-2617.52
0.1861,0.8139	-2617.45
0.1868,0.8132	-2617.41
0.1744,0.8256	-2618.81
0.1866,0.8134	-2617.42
0.2133,0.7867	-2619.19
0.1838,0.8162	-2617.60
0.1920,0.8080	-2617.28
0.1741,0.8259	-2618.85
0.1640,0.8360	-2621.23
0.1913,0.8087	-2617.28
0.2077,0.7923	-2618.32
0.1873,0.8127	-2617.39
0.1873,0.8127	-2617.39
0.1648,0.8352	-2621.01
0.1986,0.8014	-2617.46
0.2162,0.7838	-2619.74
0.2038,0.7962	-2617.86
0.2023,0.7977	-2617.72
0.1957,0.8043	-2617.33
0.1989,0.8011	-2617.47
0.2017,0.7983	-2617.68
0.1846,0.8154	-2617.55
0.1939,0.8061	-2617.29
0.1770,0.8230	-2618.37
0.1767,0.8233	-2618.43
0.2052,0.7948	-2618.01
0.1863,0.8137	-2617.44
0.1973,0.8027	-2617.39
0.1993,0.8007	-2617.50
0.1865,0.8135	-2617.43
0.2032,0.7968	-2617.81
0.2081,0.7919	-2618.38
0.2044,0.7956	-2617.93
0.2013,0.7987	-2617.64
0.2011,0.7989	-2617.63
0.1796,0.8204	-2618.02
0.2078,0.7922	-2618.34
0.2353,0.7647	-2624.86
0.1947,0.8053	-2617.30
0.2166,0.7834	-2619.81
0.2143,0.7857	-2619.37
0.1774,0.8226	-2618.32
0.1823,0.8177	-2617.73
0.2184,0.7816	-2620.20
0.1909,0.8091	-2617.28
0.1937,0.8063	-2617.29
0.1908,0.8092	-2617.28
0.1909,0.8091	-2617.28
0.1805,0.8195	-2617.93
0.1913,0.8087	-2617.28
0.2034,0.7966	-2617.83
0.1936,0.8064	-2617.28
0.1818,0.8182	-2617.79
0.1872,0.8128	-2617.39
0.1901,0.8099	-2617.30
0.1741,0.8259	-2618.85
0.1895,0.8105	-2617.31
0.1807,0.8193	-2617.90
0.1985,0.8015	-2617.45
0.1838,0.8162	-2617.61
0.1957,0.8043	-2617.33
0.1849,0.8151	-2617.52
0.1918,0.8082	-2617.28
0.1962,0.8038	-2617.35
0.1896,0.8104	-2617.31
0.1852,0.8148	-2617.50
0.2124,0.7876	-2619.03
0.1868,0.8132	-2617.41
0.2040,0.7960	-2617.88
0.2048,0.7952	-2617.97
0.1905,0.8095	-2617.29
0.1725,0.8275	-2619.16
0.1863,0.8137	-2617.44
0.2071,0.7929	-2618.25
0.1841,0.8159	-2617.59
0.1977,0.8023	-2617.41
0.1794,0.8206	-2618.06
0.1843,0.8157	-2617.57
0.1858,0.8142	-2617.47
0.1823,0.8177	-2617.73
0.1888,0.8112	-2617.33
0.1877,0.8123	-2617.37
0.1970,0.8030	-2617.38
0.2032,0.7968	-2617.81
0.1631,0.8369	-2621.49
0.1989,0.8011	-2617.47
0.1906,0.8094	-2617.29
0.1995,0.8005	-2617.51
0.2017,0.7983	-2617.67
0.1988,0.8012	-2617.47
0.1665,0.8335	-2620.53
0.1929,0.8071	-2617.28
0.1990,0.8010	-2617.48
0.1839,0.8161	-2617.59
0.1775,0.8225	-2618.31
0.2026,0.7974	-2617.75
0.1821,0.8179	-2617.76
0.1860,0.8140	-2617.45
0.1832,0.8168	-2617.65
0.1899,0.8101	-2617.30
0.1780,0.8220	-2618.24
0.1963,0.8037	-2617.35
0.2002,0.7998	-2617.56
0.1876,0.8124	-2617.37
0.1797,0.8203	-2618.02
0.1872,0.8128	-2617.39
0.1866,0.8134	-2617.42
0.1822,0.8178	-2617.74
0.1823,0.8177	-2617.74
0.1987,0.8013	-2617.47
0.1798,0.8202	-2618.00
0.1924,0.8076	-2617.28
0.1954,0.8046	-2617.32
0.1893,0.8107	-2617.31
0.2085,0.7915	-2618.43
0.1746,0.8254	-2618.76
0.1793,0.8207	-2618.07
0.1840,0.8160	-2617.59
0.2174,0.7826	-2619.99
0.1898,0.8102	-2617.30
0.1770,0.8230	-2618.38
0.1946,0.8054	-2617.30
0.2018,0.7982	-2617.68
0.1896,0.8104	-2617.31
0.2023,0.7977	-2617.72
0.1758,0.8242	-2618.56
0.1813,0.8187	-2617.83
0.1871,0.8129	-2617.40
0.1874,0.8126	-2617.38
0.1882,0.8118	-2617.35
0.1874,0.8126	-2617.38
0.1629,0.8371	-2621.55
0.1931,0.8069	-2617.28
0.1875,0.8125	-2617.38
0.1763,0.8237	-2618.48
0.1860,0.8140	-2617.46
0.1819,0.8181	-2617.77
0.1794,0.8206	-2618.05
0.1755,0.8245	-2618.61
0.1903,0.8097	-2617.29
0.1926,0.8074	-2617.28
0.1863,0.8137	-2617.44
0.1999,0.8001	-2617.54
0.2085,0.7915	-2618.43
0.1883,0.8117	-2617.35
0.2003,0.7997	-2617.57
0.1962,0.8038	-2617.35
0.1948,0.8052	-2617.31
0.2096,0.7904	-2618.60
0.1967,0.8033	-2617.37
0.2099,0.7901	-2618.64
0.2045,0.7955	-2617.94
0.2017,0.7983	-2617.68
0.1943,0.8057	-2617.29
0.1936,0.8064	-2617.28
0.1994,0.8006	-2617.51
0.2044,0.7956	-2617.93
0.1889,0.8111	-2617.33
0.2099,0.7901	-2618.63
0.1695,0.8305	-2619.79
0.1827,0.8173	-2617.70
0.1906,0.8094	-2617.29
0.1982,0.8018	-2617.43
0.2198,0.7802	-2620.49
0.2116,0.7884	-2618.90
0.1879,0.8121	-2617.36
0.2117,0.7883	-2618.92
0.1873,0.8127	-2617.39
0.1796,0.8204	-2618.03
0.2078,0.7922	-2618.34
0.1719,0.8281	-2619.27
0.1963,0.8037	-2617.35
0.1960,0.8040	-2617.34
0.1975,0.8025	-2617.40
0.1893,0.8107	-2617.31
0.1859,0.8141	-2617.46
0.1986,0.8014	-2617.46
0.1914,0.8086	-2617.28
0.1901,0.8099	-2617.30
0.1988,0.8012	-2617.47
0.2016,0.7984	-2617.66
0.1979,0.8021	-2617.42
0.1882,0.8118	-2617.35
0.1949,0.8051	-2617.31
0.1928,0.8072	-2617.28
0.2001,0.7999	-2617.55
0.1901,0.8099	-2617.30
0.1947,0.8053	-2617.30
0.1935,0.8065	-2617.28
0.1927,0.8073	-2617.28
0.1875,0.8125	-2617.38
0.1711,0.8289	-2619.44
0.1932,0.8068	-2617.28
0.1766,0.8234	-2618.43
0.1884,0.8116	-2617.34
0.1908,0.8092	-2617.28
0.1902,0.8098	-2617.29
0.1859,0.8141	-2617.46
0.1894,0.8106	-2617.31
0.2102,0.7898	-2618.68
0.1860,0.8140	-2617.45
0.1925,0.8075	-2617.28
0.1887,0.8113	-2617.33
0.1923,0.8077	-2617.28
0.1909,0.8091	-2617.28
0.2060,0.7940	-2618.11
0.1950,0.8050	-2617.31
0.1992,0.8008	-2617.49
0.2267,0.7733	-2622.22
0.1818,0.8182	-2617.78
0.1957,0.8043	-2617.33
0.1994,0.8006	-2617.51
0.1968,0.8032	-2617.37
0.1873,0.8127	-2617.39
0.1975,0.8025	-2617.40
0.1798,0.8202	-2618.01
0.1944,0.8056	-2617.30
0.1789,0.8211	-2618.12
0.1995,0.8005	-2617.52
0.1890,0.8110	-2617.32
0.1968,0.8032	-2617.37
0.1907,0.8093	-2617.29
0.1748,0.8252	-2618.73
0.2075,0.7925	-2618.30
0.1905,0.8095	-2617.29
0.1851,0.8149	-2617.51
0.1791,0.8209	-2618.09
0.2005,0.7995	-2617.58
0.1975,0.8025	-2617.40
0.1753,0.8247	-2618.65
0.1901,0.8099	-2617.30
0.1934,0.8066	-2617.28
0.1932,0.8068	-2617.28
0.1963,0.8037	-2617.35
0.2022,0.7978	-2617.72
0.1739,0.8261	-2618.89
0.2012,0.7988	-2617.63
0.1913,0.8087	-2617.28
0.1872,0.8128	-2617.39
0.1921,0.8079	-2617.28
0.1902,0.8098	-2617.29
0.1700,0.8300	-2619.68
0.1989,0.8011	-2617.47
